# E (eV)  dos(E)    pdos(E)
  -5.912  0.174E-05  0.173E-05
  -5.902  0.258E-03  0.257E-03
  -5.892  0.519E-02  0.517E-02
  -5.882  0.141E-01  0.141E-01
  -5.872  0.567E-02  0.565E-02
  -5.862  0.193E-01  0.193E-01
  -5.852  0.111E+00  0.111E+00
  -5.842  0.142E+00  0.141E+00
  -5.832  0.698E-01  0.695E-01
  -5.822  0.783E-02  0.781E-02
  -5.812  0.487E-02  0.485E-02
  -5.802  0.765E-01  0.762E-01
  -5.792  0.167E+00  0.167E+00
  -5.782  0.519E-01  0.517E-01
  -5.772  0.784E-01  0.782E-01
  -5.762  0.342E+00  0.341E+00
  -5.752  0.287E+00  0.286E+00
  -5.742  0.851E-01  0.848E-01
  -5.732  0.683E-02  0.680E-02
  -5.722  0.360E-02  0.358E-02
  -5.712  0.458E-01  0.456E-01
  -5.702  0.808E-01  0.805E-01
  -5.692  0.243E-01  0.242E-01
  -5.682  0.115E+00  0.114E+00
  -5.672  0.421E+00  0.419E+00
  -5.662  0.466E+00  0.464E+00
  -5.652  0.182E+00  0.181E+00
  -5.642  0.130E-01  0.130E-01
  -5.632  0.291E-01  0.290E-01
  -5.622  0.245E+00  0.244E+00
  -5.612  0.281E+00  0.280E+00
  -5.602  0.553E-01  0.551E-01
  -5.592  0.197E+00  0.196E+00
  -5.582  0.447E+00  0.445E+00
  -5.572  0.139E+00  0.139E+00
  -5.562  0.594E-02  0.592E-02
  -5.552  0.694E-03  0.691E-03
  -5.542  0.270E-01  0.269E-01
  -5.532  0.149E+00  0.149E+00
  -5.522  0.112E+00  0.112E+00
  -5.512  0.538E-01  0.536E-01
  -5.502  0.456E+00  0.455E+00
  -5.492  0.852E+00  0.849E+00
  -5.482  0.506E+00  0.504E+00
  -5.472  0.903E-01  0.900E-01
  -5.462  0.488E-02  0.486E-02
  -5.452  0.703E-01  0.700E-01
  -5.442  0.317E+00  0.316E+00
  -5.432  0.196E+00  0.195E+00
  -5.422  0.767E-01  0.764E-01
  -5.412  0.336E+00  0.335E+00
  -5.402  0.458E+00  0.456E+00
  -5.392  0.300E+00  0.298E+00
  -5.382  0.434E-01  0.432E-01
  -5.372  0.813E-02  0.810E-02
  -5.362  0.732E-01  0.729E-01
  -5.352  0.100E+00  0.100E+00
  -5.342  0.249E-01  0.248E-01
  -5.332  0.164E+00  0.164E+00
  -5.322  0.705E+00  0.702E+00
  -5.312  0.696E+00  0.693E+00
  -5.302  0.215E+00  0.214E+00
  -5.292  0.158E-01  0.158E-01
  -5.282  0.814E-01  0.811E-01
  -5.272  0.550E+00  0.548E+00
  -5.262  0.504E+00  0.502E+00
  -5.252  0.110E+00  0.110E+00
  -5.242  0.534E+00  0.532E+00
  -5.232  0.948E+00  0.944E+00
  -5.222  0.261E+00  0.260E+00
  -5.212  0.106E-01  0.105E-01
  -5.202  0.107E-03  0.106E-03
  -5.192  0.406E-02  0.404E-02
  -5.182  0.487E-01  0.486E-01
  -5.172  0.804E-01  0.800E-01
  -5.162  0.706E-01  0.703E-01
  -5.152  0.391E+00  0.389E+00
  -5.142  0.696E+00  0.694E+00
  -5.132  0.526E+00  0.524E+00
  -5.122  0.128E+00  0.127E+00
  -5.112  0.186E-01  0.186E-01
  -5.102  0.194E+00  0.193E+00
  -5.092  0.483E+00  0.481E+00
  -5.082  0.228E+00  0.227E+00
  -5.072  0.396E+00  0.395E+00
  -5.062  0.931E+00  0.927E+00
  -5.052  0.559E+00  0.556E+00
  -5.042  0.924E-01  0.921E-01
  -5.032  0.327E-02  0.326E-02
  -5.022  0.267E-01  0.266E-01
  -5.012  0.238E+00  0.237E+00
  -5.002  0.293E+00  0.292E+00
  -4.992  0.219E+00  0.218E+00
  -4.982  0.740E+00  0.737E+00
  -4.972  0.104E+01  0.103E+01
  -4.962  0.887E+00  0.883E+00
  -4.952  0.157E+00  0.157E+00
  -4.942  0.993E-01  0.989E-01
  -4.932  0.333E+00  0.332E+00
  -4.922  0.157E+00  0.157E+00
  -4.912  0.105E-01  0.105E-01
  -4.902  0.369E-01  0.368E-01
  -4.892  0.411E+00  0.409E+00
  -4.882  0.621E+00  0.618E+00
  -4.872  0.127E+00  0.126E+00
  -4.862  0.111E-01  0.111E-01
  -4.852  0.138E+00  0.137E+00
  -4.842  0.338E+00  0.337E+00
  -4.832  0.151E+00  0.151E+00
  -4.822  0.358E+00  0.356E+00
  -4.812  0.786E+00  0.783E+00
  -4.802  0.823E+00  0.819E+00
  -4.792  0.390E+00  0.388E+00
  -4.782  0.123E+00  0.123E+00
  -4.772  0.126E+00  0.126E+00
  -4.762  0.575E+00  0.573E+00
  -4.752  0.582E+00  0.579E+00
  -4.742  0.514E+00  0.511E+00
  -4.732  0.770E+00  0.767E+00
  -4.722  0.903E+00  0.899E+00
  -4.712  0.436E+00  0.434E+00
  -4.702  0.353E+00  0.351E+00
  -4.692  0.166E+00  0.165E+00
  -4.682  0.112E-01  0.112E-01
  -4.672  0.245E-03  0.243E-03
  -4.662  0.217E-01  0.216E-01
  -4.652  0.458E+00  0.456E+00
  -4.642  0.135E+01  0.134E+01
  -4.632  0.612E+00  0.610E+00
  -4.622  0.345E+00  0.343E+00
  -4.612  0.200E+00  0.199E+00
  -4.602  0.238E-01  0.237E-01
  -4.592  0.200E+00  0.199E+00
  -4.582  0.897E+00  0.893E+00
  -4.572  0.625E+00  0.623E+00
  -4.562  0.701E-01  0.698E-01
  -4.552  0.144E-01  0.144E-01
  -4.542  0.178E+00  0.177E+00
  -4.532  0.326E+00  0.325E+00
  -4.522  0.107E+00  0.106E+00
  -4.512  0.152E+00  0.151E+00
  -4.502  0.164E+00  0.163E+00
  -4.492  0.376E+00  0.375E+00
  -4.482  0.888E+00  0.884E+00
  -4.472  0.113E+01  0.113E+01
  -4.462  0.101E+01  0.100E+01
  -4.452  0.101E+01  0.101E+01
  -4.442  0.324E+00  0.323E+00
  -4.432  0.822E-01  0.818E-01
  -4.422  0.338E+00  0.337E+00
  -4.412  0.580E+00  0.578E+00
  -4.402  0.679E+00  0.676E+00
  -4.392  0.482E+00  0.480E+00
  -4.382  0.985E+00  0.981E+00
  -4.372  0.626E+00  0.623E+00
  -4.362  0.384E+00  0.382E+00
  -4.352  0.188E+00  0.187E+00
  -4.342  0.673E-01  0.670E-01
  -4.332  0.543E-02  0.541E-02
  -4.322  0.954E-02  0.950E-02
  -4.312  0.173E+00  0.172E+00
  -4.302  0.678E+00  0.675E+00
  -4.292  0.488E+00  0.486E+00
  -4.282  0.526E+00  0.524E+00
  -4.272  0.117E+01  0.116E+01
  -4.262  0.104E+01  0.104E+01
  -4.252  0.256E+00  0.254E+00
  -4.242  0.150E+00  0.149E+00
  -4.232  0.836E+00  0.832E+00
  -4.222  0.728E+00  0.725E+00
  -4.212  0.943E-01  0.938E-01
  -4.202  0.871E-01  0.867E-01
  -4.192  0.329E+00  0.327E+00
  -4.182  0.172E+00  0.171E+00
  -4.172  0.680E-01  0.677E-01
  -4.162  0.445E+00  0.443E+00
  -4.152  0.740E+00  0.736E+00
  -4.142  0.463E+00  0.461E+00
  -4.132  0.176E+00  0.175E+00
  -4.122  0.772E+00  0.768E+00
  -4.112  0.135E+01  0.135E+01
  -4.102  0.908E+00  0.904E+00
  -4.092  0.698E+00  0.695E+00
  -4.082  0.456E+00  0.454E+00
  -4.072  0.721E+00  0.717E+00
  -4.062  0.776E+00  0.773E+00
  -4.052  0.221E+00  0.220E+00
  -4.042  0.192E-01  0.191E-01
  -4.032  0.206E+00  0.205E+00
  -4.022  0.109E+01  0.109E+01
  -4.012  0.138E+01  0.138E+01
  -4.002  0.791E+00  0.788E+00
  -3.992  0.135E+00  0.134E+00
  -3.982  0.222E+00  0.221E+00
  -3.972  0.562E+00  0.559E+00
  -3.962  0.551E+00  0.548E+00
  -3.952  0.618E+00  0.615E+00
  -3.942  0.877E+00  0.873E+00
  -3.932  0.753E+00  0.750E+00
  -3.922  0.194E+00  0.193E+00
  -3.912  0.826E-02  0.822E-02
  -3.902  0.517E-01  0.514E-01
  -3.892  0.536E+00  0.534E+00
  -3.882  0.126E+01  0.125E+01
  -3.872  0.988E+00  0.984E+00
  -3.862  0.172E+00  0.171E+00
  -3.852  0.218E+00  0.217E+00
  -3.842  0.674E+00  0.670E+00
  -3.832  0.293E+00  0.292E+00
  -3.822  0.157E+00  0.157E+00
  -3.812  0.598E+00  0.596E+00
  -3.802  0.949E+00  0.945E+00
  -3.792  0.403E+00  0.401E+00
  -3.782  0.388E+00  0.386E+00
  -3.772  0.974E+00  0.969E+00
  -3.762  0.449E+00  0.447E+00
  -3.752  0.259E+00  0.257E+00
  -3.742  0.706E+00  0.702E+00
  -3.732  0.890E+00  0.886E+00
  -3.722  0.137E+01  0.137E+01
  -3.712  0.130E+01  0.129E+01
  -3.702  0.120E+01  0.120E+01
  -3.692  0.946E+00  0.942E+00
  -3.682  0.997E+00  0.992E+00
  -3.672  0.261E+00  0.260E+00
  -3.662  0.157E-01  0.156E-01
  -3.652  0.164E+00  0.163E+00
  -3.642  0.718E+00  0.715E+00
  -3.632  0.692E+00  0.690E+00
  -3.622  0.125E+01  0.125E+01
  -3.612  0.128E+01  0.128E+01
  -3.602  0.481E+00  0.479E+00
  -3.592  0.853E+00  0.849E+00
  -3.582  0.968E+00  0.963E+00
  -3.572  0.358E+00  0.357E+00
  -3.562  0.108E+00  0.108E+00
  -3.552  0.854E+00  0.851E+00
  -3.542  0.133E+01  0.132E+01
  -3.532  0.100E+01  0.100E+01
  -3.522  0.796E+00  0.793E+00
  -3.512  0.132E+00  0.132E+00
  -3.502  0.129E+00  0.128E+00
  -3.492  0.493E+00  0.491E+00
  -3.482  0.525E+00  0.524E+00
  -3.472  0.395E+00  0.393E+00
  -3.462  0.693E+00  0.690E+00
  -3.452  0.458E+00  0.456E+00
  -3.442  0.757E+00  0.754E+00
  -3.432  0.710E+00  0.706E+00
  -3.422  0.928E+00  0.924E+00
  -3.412  0.113E+01  0.112E+01
  -3.402  0.982E+00  0.978E+00
  -3.392  0.135E+01  0.135E+01
  -3.382  0.124E+01  0.124E+01
  -3.372  0.139E+01  0.138E+01
  -3.362  0.219E+01  0.218E+01
  -3.352  0.184E+01  0.183E+01
  -3.342  0.477E+00  0.475E+00
  -3.332  0.324E+00  0.323E+00
  -3.322  0.744E+00  0.741E+00
  -3.312  0.114E+01  0.113E+01
  -3.302  0.166E+01  0.165E+01
  -3.292  0.830E+00  0.827E+00
  -3.282  0.605E+00  0.602E+00
  -3.272  0.191E+00  0.190E+00
  -3.262  0.333E+00  0.332E+00
  -3.252  0.220E+00  0.219E+00
  -3.242  0.554E+00  0.551E+00
  -3.232  0.918E+00  0.913E+00
  -3.222  0.455E+00  0.453E+00
  -3.212  0.642E+00  0.640E+00
  -3.202  0.951E+00  0.947E+00
  -3.192  0.116E+01  0.115E+01
  -3.182  0.156E+01  0.155E+01
  -3.172  0.838E+00  0.835E+00
  -3.162  0.924E-01  0.920E-01
  -3.152  0.156E+00  0.155E+00
  -3.142  0.620E+00  0.618E+00
  -3.132  0.826E+00  0.823E+00
  -3.122  0.396E+00  0.394E+00
  -3.112  0.470E+00  0.468E+00
  -3.102  0.633E+00  0.631E+00
  -3.092  0.501E+00  0.498E+00
  -3.082  0.145E+00  0.144E+00
  -3.072  0.173E+00  0.172E+00
  -3.062  0.723E+00  0.720E+00
  -3.052  0.148E+01  0.147E+01
  -3.042  0.200E+01  0.200E+01
  -3.032  0.131E+01  0.130E+01
  -3.022  0.133E+01  0.132E+01
  -3.012  0.183E+01  0.182E+01
  -3.002  0.865E+00  0.861E+00
  -2.992  0.275E+00  0.274E+00
  -2.982  0.584E+00  0.580E+00
  -2.972  0.586E+00  0.583E+00
  -2.962  0.990E+00  0.986E+00
  -2.952  0.125E+01  0.124E+01
  -2.942  0.535E+00  0.533E+00
  -2.932  0.180E+00  0.179E+00
  -2.922  0.202E+00  0.201E+00
  -2.912  0.320E+00  0.318E+00
  -2.902  0.111E+00  0.111E+00
  -2.892  0.424E+00  0.422E+00
  -2.882  0.643E+00  0.641E+00
  -2.872  0.515E+00  0.513E+00
  -2.862  0.942E+00  0.938E+00
  -2.852  0.945E+00  0.940E+00
  -2.842  0.929E+00  0.925E+00
  -2.832  0.159E+01  0.158E+01
  -2.822  0.107E+01  0.106E+01
  -2.812  0.186E+00  0.185E+00
  -2.802  0.323E+00  0.322E+00
  -2.792  0.188E+00  0.188E+00
  -2.782  0.682E-01  0.678E-01
  -2.772  0.300E+00  0.298E+00
  -2.762  0.311E+00  0.309E+00
  -2.752  0.583E+00  0.581E+00
  -2.742  0.493E+00  0.491E+00
  -2.732  0.111E+00  0.110E+00
  -2.722  0.785E+00  0.781E+00
  -2.712  0.185E+01  0.184E+01
  -2.702  0.122E+01  0.121E+01
  -2.692  0.807E+00  0.803E+00
  -2.682  0.111E+01  0.110E+01
  -2.672  0.979E+00  0.974E+00
  -2.662  0.376E+00  0.374E+00
  -2.652  0.132E+00  0.132E+00
  -2.642  0.337E+00  0.336E+00
  -2.632  0.196E+00  0.195E+00
  -2.622  0.645E+00  0.642E+00
  -2.612  0.133E+01  0.132E+01
  -2.602  0.997E+00  0.992E+00
  -2.592  0.139E+01  0.138E+01
  -2.582  0.887E+00  0.883E+00
  -2.572  0.113E+00  0.112E+00
  -2.562  0.216E-02  0.215E-02
  -2.552  0.848E-04  0.844E-04
  -2.542  0.120E-01  0.119E-01
  -2.532  0.254E+00  0.253E+00
  -2.522  0.898E+00  0.894E+00
  -2.512  0.929E+00  0.925E+00
  -2.502  0.294E+00  0.292E+00
  -2.492  0.933E-01  0.929E-01
  -2.482  0.534E+00  0.531E+00
  -2.472  0.936E+00  0.931E+00
  -2.462  0.888E+00  0.884E+00
  -2.452  0.926E+00  0.922E+00
  -2.442  0.234E+00  0.233E+00
  -2.432  0.644E-01  0.640E-01
  -2.422  0.786E-01  0.781E-01
  -2.412  0.127E+00  0.126E+00
  -2.402  0.617E+00  0.614E+00
  -2.392  0.912E+00  0.907E+00
  -2.382  0.556E+00  0.553E+00
  -2.372  0.196E+00  0.195E+00
  -2.362  0.248E+00  0.247E+00
  -2.352  0.699E+00  0.697E+00
  -2.342  0.525E+00  0.522E+00
  -2.332  0.118E+01  0.118E+01
  -2.322  0.207E+01  0.206E+01
  -2.312  0.131E+01  0.130E+01
  -2.302  0.258E+00  0.257E+00
  -2.292  0.100E-01  0.999E-02
  -2.282  0.628E-04  0.625E-04
  -2.272  0.556E-03  0.554E-03
  -2.262  0.491E-01  0.489E-01
  -2.252  0.587E+00  0.584E+00
  -2.242  0.956E+00  0.951E+00
  -2.232  0.333E+00  0.332E+00
  -2.222  0.345E+00  0.343E+00
  -2.212  0.124E+00  0.123E+00
  -2.202  0.637E-02  0.633E-02
  -2.192  0.318E-01  0.317E-01
  -2.182  0.539E+00  0.537E+00
  -2.172  0.134E+01  0.133E+01
  -2.162  0.645E+00  0.643E+00
  -2.152  0.546E+00  0.543E+00
  -2.142  0.419E+00  0.417E+00
  -2.132  0.787E-01  0.783E-01
  -2.122  0.250E-02  0.249E-02
  -2.112  0.127E-01  0.126E-01
  -2.102  0.175E+00  0.174E+00
  -2.092  0.328E+00  0.326E+00
  -2.082  0.136E+00  0.135E+00
  -2.072  0.482E+00  0.480E+00
  -2.062  0.678E+00  0.675E+00
  -2.052  0.587E+00  0.584E+00
  -2.042  0.494E+00  0.491E+00
  -2.032  0.134E+00  0.133E+00
  -2.022  0.463E+00  0.460E+00
  -2.012  0.134E+01  0.133E+01
  -2.002  0.100E+01  0.995E+00
  -1.992  0.166E+00  0.165E+00
  -1.982  0.431E-01  0.429E-01
  -1.972  0.270E+00  0.269E+00
  -1.962  0.287E+00  0.286E+00
  -1.952  0.410E+00  0.408E+00
  -1.942  0.641E+00  0.638E+00
  -1.932  0.148E+00  0.147E+00
  -1.922  0.460E-02  0.457E-02
  -1.912  0.282E-03  0.280E-03
  -1.902  0.161E-01  0.160E-01
  -1.892  0.165E+00  0.164E+00
  -1.882  0.568E+00  0.565E+00
  -1.872  0.796E+00  0.792E+00
  -1.862  0.455E+00  0.453E+00
  -1.852  0.992E-01  0.987E-01
  -1.842  0.103E+00  0.103E+00
  -1.832  0.584E+00  0.581E+00
  -1.822  0.464E+00  0.461E+00
  -1.812  0.560E-01  0.557E-01
  -1.802  0.125E+00  0.125E+00
  -1.792  0.339E+00  0.337E+00
  -1.782  0.125E+00  0.124E+00
  -1.772  0.653E-02  0.650E-02
  -1.762  0.233E-01  0.232E-01
  -1.752  0.226E+00  0.224E+00
  -1.742  0.297E+00  0.295E+00
  -1.732  0.529E-01  0.526E-01
  -1.722  0.114E-01  0.114E-01
  -1.712  0.107E+00  0.106E+00
  -1.702  0.153E+00  0.152E+00
  -1.692  0.296E-01  0.294E-01
  -1.682  0.898E-02  0.892E-02
  -1.672  0.688E-01  0.683E-01
  -1.662  0.177E+00  0.176E+00
  -1.652  0.347E+00  0.345E+00
  -1.642  0.141E+00  0.140E+00
  -1.632  0.105E-01  0.104E-01
  -1.622  0.778E-01  0.773E-01
  -1.612  0.323E+00  0.321E+00
  -1.602  0.182E+00  0.181E+00
  -1.592  0.161E-01  0.160E-01
  -1.582  0.531E-01  0.527E-01
  -1.572  0.191E+00  0.190E+00
  -1.562  0.299E+00  0.297E+00
  -1.552  0.301E+00  0.299E+00
  -1.542  0.527E-01  0.524E-01
  -1.532  0.301E-02  0.299E-02
  -1.522  0.632E-01  0.629E-01
  -1.512  0.312E+00  0.310E+00
  -1.502  0.251E+00  0.250E+00
  -1.492  0.184E+00  0.183E+00
  -1.482  0.855E-01  0.850E-01
  -1.472  0.964E-01  0.957E-01
  -1.462  0.331E+00  0.329E+00
  -1.452  0.163E+00  0.162E+00
  -1.442  0.109E-01  0.108E-01
  -1.432  0.986E-04  0.980E-04
  -1.422  0.121E-06  0.120E-06
  -1.412  0.200E-10  0.198E-10
  -1.402  0.447E-15  0.444E-15
  -1.392  0.000E+00  0.000E+00
  -1.382  0.128E-14  0.128E-14
  -1.372  0.478E-10  0.475E-10
  -1.362  0.241E-06  0.239E-06
  -1.352  0.164E-03  0.163E-03
  -1.342  0.152E-01  0.151E-01
  -1.332  0.189E+00  0.188E+00
  -1.322  0.320E+00  0.318E+00
  -1.312  0.733E-01  0.729E-01
  -1.302  0.123E-01  0.122E-01
  -1.292  0.106E+00  0.106E+00
  -1.282  0.160E+00  0.158E+00
  -1.272  0.158E+00  0.157E+00
  -1.262  0.364E+00  0.362E+00
  -1.252  0.469E+00  0.466E+00
  -1.242  0.661E+00  0.657E+00
  -1.232  0.216E+00  0.215E+00
  -1.222  0.555E+00  0.551E+00
  -1.212  0.941E+00  0.935E+00
  -1.202  0.408E+00  0.406E+00
  -1.192  0.745E+00  0.740E+00
  -1.182  0.111E+01  0.110E+01
  -1.172  0.867E+00  0.862E+00
  -1.162  0.145E+00  0.144E+00
  -1.152  0.278E+00  0.276E+00
  -1.142  0.675E+00  0.671E+00
  -1.132  0.224E+00  0.223E+00
  -1.122  0.101E-01  0.100E-01
  -1.112  0.733E-04  0.728E-04
  -1.102  0.267E-02  0.266E-02
  -1.092  0.802E-01  0.797E-01
  -1.082  0.325E+00  0.323E+00
  -1.072  0.179E+00  0.177E+00
  -1.062  0.162E-01  0.161E-01
  -1.052  0.106E+00  0.105E+00
  -1.042  0.672E+00  0.668E+00
  -1.032  0.833E+00  0.828E+00
  -1.022  0.187E+00  0.186E+00
  -1.012  0.131E+00  0.130E+00
  -1.002  0.339E+00  0.336E+00
  -0.992  0.124E+00  0.123E+00
  -0.982  0.613E-02  0.609E-02
  -0.972  0.422E-04  0.419E-04
  -0.962  0.479E-03  0.477E-03
  -0.952  0.296E-01  0.294E-01
  -0.942  0.247E+00  0.246E+00
  -0.932  0.280E+00  0.279E+00
  -0.922  0.902E-01  0.896E-01
  -0.912  0.347E+00  0.345E+00
  -0.902  0.915E+00  0.910E+00
  -0.892  0.134E+01  0.133E+01
  -0.882  0.986E+00  0.980E+00
  -0.872  0.124E+01  0.123E+01
  -0.862  0.193E+01  0.192E+01
  -0.852  0.232E+01  0.230E+01
  -0.842  0.117E+01  0.116E+01
  -0.832  0.593E+00  0.587E+00
  -0.822  0.620E+00  0.613E+00
  -0.812  0.655E+00  0.650E+00
  -0.802  0.771E+00  0.766E+00
  -0.792  0.352E+00  0.350E+00
  -0.782  0.768E+00  0.761E+00
  -0.772  0.835E+00  0.829E+00
  -0.762  0.573E+00  0.567E+00
  -0.752  0.849E+00  0.841E+00
  -0.742  0.164E+01  0.162E+01
  -0.732  0.123E+01  0.122E+01
  -0.722  0.943E+00  0.935E+00
  -0.712  0.966E+00  0.957E+00
  -0.702  0.449E+00  0.444E+00
  -0.692  0.489E+00  0.485E+00
  -0.682  0.967E+00  0.958E+00
  -0.672  0.160E+01  0.158E+01
  -0.662  0.184E+01  0.182E+01
  -0.652  0.230E+01  0.229E+01
  -0.642  0.221E+01  0.219E+01
  -0.632  0.205E+01  0.203E+01
  -0.622  0.172E+01  0.171E+01
  -0.612  0.184E+01  0.182E+01
  -0.602  0.150E+01  0.149E+01
  -0.592  0.132E+01  0.131E+01
  -0.582  0.110E+01  0.109E+01
  -0.572  0.156E+01  0.155E+01
  -0.562  0.215E+01  0.213E+01
  -0.552  0.110E+01  0.109E+01
  -0.542  0.535E+00  0.529E+00
  -0.532  0.584E+00  0.578E+00
  -0.522  0.756E+00  0.750E+00
  -0.512  0.174E+01  0.172E+01
  -0.502  0.159E+01  0.158E+01
  -0.492  0.749E+00  0.743E+00
  -0.482  0.844E+00  0.837E+00
  -0.472  0.916E+00  0.909E+00
  -0.462  0.204E+01  0.202E+01
  -0.452  0.167E+01  0.166E+01
  -0.442  0.155E+01  0.154E+01
  -0.432  0.138E+01  0.137E+01
  -0.422  0.836E+00  0.828E+00
  -0.412  0.269E+00  0.267E+00
  -0.402  0.829E-01  0.823E-01
  -0.392  0.316E+00  0.314E+00
  -0.382  0.197E+00  0.196E+00
  -0.372  0.637E-01  0.632E-01
  -0.362  0.379E+00  0.376E+00
  -0.352  0.844E+00  0.836E+00
  -0.342  0.956E+00  0.947E+00
  -0.332  0.137E+01  0.136E+01
  -0.322  0.999E+00  0.991E+00
  -0.312  0.374E+00  0.371E+00
  -0.302  0.581E+00  0.577E+00
  -0.292  0.111E+01  0.110E+01
  -0.282  0.964E+00  0.957E+00
  -0.272  0.743E+00  0.738E+00
  -0.262  0.491E+00  0.488E+00
  -0.252  0.597E+00  0.592E+00
  -0.242  0.733E+00  0.726E+00
  -0.232  0.865E+00  0.858E+00
  -0.222  0.886E+00  0.879E+00
  -0.212  0.862E+00  0.856E+00
  -0.202  0.168E+01  0.167E+01
  -0.192  0.945E+00  0.938E+00
  -0.182  0.168E+00  0.166E+00
  -0.172  0.576E-01  0.571E-01
  -0.162  0.652E+00  0.646E+00
  -0.152  0.124E+01  0.123E+01
  -0.142  0.615E+00  0.610E+00
  -0.132  0.694E+00  0.689E+00
  -0.122  0.284E+00  0.282E+00
  -0.112  0.463E+00  0.458E+00
  -0.102  0.627E+00  0.620E+00
  -0.092  0.362E+00  0.359E+00
  -0.082  0.274E+00  0.271E+00
  -0.072  0.401E-01  0.398E-01
  -0.062  0.608E-01  0.603E-01
  -0.052  0.442E+00  0.438E+00
  -0.042  0.681E+00  0.675E+00
  -0.032  0.126E+01  0.125E+01
  -0.022  0.247E+01  0.245E+01
  -0.012  0.169E+01  0.168E+01
  -0.002  0.655E+00  0.650E+00
   0.008  0.986E-01  0.978E-01
   0.018  0.258E+00  0.256E+00
   0.028  0.109E+01  0.108E+01
   0.038  0.901E+00  0.894E+00
   0.048  0.141E+00  0.140E+00
   0.058  0.537E-02  0.532E-02
   0.068  0.650E-01  0.643E-01
   0.078  0.312E+00  0.309E+00
   0.088  0.203E+00  0.201E+00
   0.098  0.180E-01  0.178E-01
   0.108  0.174E-01  0.172E-01
   0.118  0.226E+00  0.224E+00
   0.128  0.563E+00  0.558E+00
   0.138  0.449E+00  0.445E+00
   0.148  0.974E+00  0.965E+00
   0.158  0.117E+01  0.116E+01
   0.168  0.211E+00  0.210E+00
   0.178  0.310E+00  0.307E+00
   0.188  0.126E+01  0.125E+01
   0.198  0.138E+01  0.137E+01
   0.208  0.101E+01  0.100E+01
   0.218  0.725E+00  0.718E+00
   0.228  0.473E+00  0.469E+00
   0.238  0.626E+00  0.621E+00
   0.248  0.196E+00  0.195E+00
   0.258  0.100E-01  0.996E-02
   0.268  0.212E-03  0.210E-03
   0.278  0.171E-01  0.170E-01
   0.288  0.292E+00  0.290E+00
   0.298  0.731E+00  0.725E+00
   0.308  0.700E+00  0.694E+00
   0.318  0.570E+00  0.565E+00
   0.328  0.126E+00  0.124E+00
   0.338  0.486E+00  0.482E+00
   0.348  0.951E+00  0.942E+00
   0.358  0.310E+00  0.307E+00
   0.368  0.277E-01  0.274E-01
   0.378  0.232E+00  0.230E+00
   0.388  0.683E+00  0.676E+00
   0.398  0.450E+00  0.445E+00
   0.408  0.801E+00  0.794E+00
   0.418  0.108E+01  0.107E+01
   0.428  0.108E+01  0.107E+01
   0.438  0.767E+00  0.761E+00
   0.448  0.279E+00  0.276E+00
   0.458  0.212E-01  0.210E-01
   0.468  0.249E-03  0.247E-03
   0.478  0.417E-06  0.414E-06
   0.488  0.854E-05  0.847E-05
   0.498  0.260E-02  0.258E-02
   0.508  0.107E+00  0.106E+00
   0.518  0.595E+00  0.591E+00
   0.528  0.453E+00  0.449E+00
   0.538  0.101E+00  0.100E+00
   0.548  0.111E+00  0.110E+00
   0.558  0.611E-01  0.605E-01
   0.568  0.449E+00  0.445E+00
   0.578  0.143E+01  0.142E+01
   0.588  0.141E+01  0.139E+01
   0.598  0.364E+00  0.361E+00
   0.608  0.574E+00  0.570E+00
   0.618  0.607E+00  0.602E+00
   0.628  0.420E+00  0.416E+00
   0.638  0.592E+00  0.586E+00
   0.648  0.131E+01  0.130E+01
   0.658  0.582E+00  0.577E+00
   0.668  0.188E+00  0.186E+00
   0.678  0.366E+00  0.363E+00
   0.688  0.256E+00  0.254E+00
   0.698  0.110E+00  0.109E+00
   0.708  0.994E-02  0.986E-02
   0.718  0.126E-03  0.125E-03
   0.728  0.888E-06  0.880E-06
   0.738  0.347E-03  0.344E-03
   0.748  0.243E-01  0.241E-01
   0.758  0.230E+00  0.227E+00
   0.768  0.294E+00  0.291E+00
   0.778  0.509E-01  0.504E-01
   0.788  0.124E-02  0.123E-02
   0.798  0.654E-02  0.646E-02
   0.808  0.130E+00  0.129E+00
   0.818  0.417E+00  0.412E+00
   0.828  0.503E+00  0.498E+00
   0.838  0.718E+00  0.711E+00
   0.848  0.101E+01  0.100E+01
   0.858  0.113E+01  0.112E+01
   0.868  0.141E+01  0.140E+01
   0.878  0.744E+00  0.737E+00
   0.888  0.528E+00  0.523E+00
   0.898  0.622E+00  0.616E+00
   0.908  0.127E+00  0.126E+00
   0.918  0.112E+00  0.111E+00
   0.928  0.337E+00  0.334E+00
   0.938  0.141E+00  0.140E+00
   0.948  0.803E-02  0.796E-02
   0.958  0.617E-04  0.612E-04
   0.968  0.642E-07  0.636E-07
   0.978  0.904E-11  0.895E-11
   0.988  0.172E-15  0.171E-15
   0.998  0.264E-13  0.261E-13
   1.008  0.574E-09  0.569E-09
   1.018  0.170E-05  0.168E-05
   1.028  0.688E-03  0.682E-03
   1.038  0.401E-01  0.398E-01
   1.048  0.398E+00  0.395E+00
   1.058  0.890E+00  0.882E+00
   1.068  0.445E+00  0.441E+00
   1.078  0.197E+00  0.195E+00
   1.088  0.507E+00  0.502E+00
   1.098  0.470E+00  0.465E+00
   1.108  0.413E+00  0.409E+00
   1.118  0.761E+00  0.753E+00
   1.128  0.108E+01  0.107E+01
   1.138  0.139E+01  0.137E+01
   1.148  0.574E+00  0.569E+00
   1.158  0.189E+00  0.188E+00
   1.168  0.335E+00  0.332E+00
   1.178  0.101E+00  0.998E-01
   1.188  0.410E-02  0.406E-02
   1.198  0.226E-04  0.224E-04
   1.208  0.185E-06  0.183E-06
   1.218  0.151E-03  0.150E-03
   1.228  0.183E-01  0.182E-01
   1.238  0.301E+00  0.298E+00
   1.248  0.670E+00  0.664E+00
   1.258  0.202E+00  0.200E+00
   1.268  0.894E-02  0.885E-02
   1.278  0.380E-01  0.376E-01
   1.288  0.269E+00  0.266E+00
   1.298  0.258E+00  0.256E+00
   1.308  0.335E-01  0.332E-01
   1.318  0.590E-03  0.584E-03
   1.328  0.133E-03  0.132E-03
   1.338  0.876E-02  0.866E-02
   1.348  0.789E-01  0.779E-01
   1.358  0.993E-01  0.981E-01
   1.368  0.158E+00  0.156E+00
   1.378  0.987E+00  0.976E+00
   1.388  0.137E+01  0.135E+01
   1.398  0.807E+00  0.798E+00
   1.408  0.393E+00  0.389E+00
   1.418  0.361E+00  0.357E+00
   1.428  0.134E+00  0.133E+00
   1.438  0.715E-02  0.708E-02
   1.448  0.518E-04  0.512E-04
   1.458  0.507E-07  0.502E-07
   1.468  0.125E-07  0.124E-07
   1.478  0.213E-04  0.211E-04
   1.488  0.491E-02  0.485E-02
   1.498  0.153E+00  0.151E+00
   1.508  0.645E+00  0.638E+00
   1.518  0.368E+00  0.364E+00
   1.528  0.285E-01  0.282E-01
   1.538  0.223E-02  0.220E-02
   1.548  0.669E-01  0.662E-01
   1.558  0.315E+00  0.311E+00
   1.568  0.229E+00  0.227E+00
   1.578  0.264E+00  0.261E+00
   1.588  0.291E+00  0.288E+00
   1.598  0.279E+00  0.276E+00
   1.608  0.677E+00  0.670E+00
   1.618  0.263E+00  0.260E+00
   1.628  0.173E-01  0.172E-01
   1.638  0.103E+00  0.102E+00
   1.648  0.506E+00  0.500E+00
   1.658  0.735E+00  0.727E+00
   1.668  0.112E+01  0.111E+01
   1.678  0.924E+00  0.914E+00
   1.688  0.455E+00  0.451E+00
   1.698  0.169E+00  0.167E+00
   1.708  0.224E+00  0.222E+00
   1.718  0.347E+00  0.345E+00
   1.728  0.224E+00  0.222E+00
   1.738  0.395E+00  0.392E+00
   1.748  0.833E+00  0.827E+00
   1.758  0.806E+00  0.801E+00
   1.768  0.338E+00  0.336E+00
   1.778  0.873E-01  0.864E-01
   1.788  0.684E-01  0.676E-01
   1.798  0.428E-01  0.425E-01
   1.808  0.283E+00  0.281E+00
   1.818  0.709E+00  0.704E+00
   1.828  0.114E+01  0.113E+01
   1.838  0.487E+00  0.484E+00
   1.848  0.770E-01  0.765E-01
   1.858  0.316E+00  0.314E+00
   1.868  0.937E+00  0.931E+00
   1.878  0.130E+01  0.129E+01
   1.888  0.115E+01  0.114E+01
   1.898  0.142E+01  0.141E+01
   1.908  0.196E+01  0.195E+01
   1.918  0.134E+01  0.133E+01
   1.928  0.925E+00  0.918E+00
   1.938  0.189E+01  0.187E+01
   1.948  0.199E+01  0.197E+01
   1.958  0.941E+00  0.933E+00
   1.968  0.702E+00  0.697E+00
   1.978  0.429E+00  0.427E+00
   1.988  0.585E+00  0.582E+00
   1.998  0.117E+01  0.116E+01
   2.008  0.100E+01  0.995E+00
   2.018  0.783E+00  0.778E+00
   2.028  0.412E+00  0.409E+00
   2.038  0.904E+00  0.898E+00
   2.048  0.137E+01  0.137E+01
   2.058  0.563E+00  0.560E+00
   2.068  0.111E+01  0.110E+01
   2.078  0.183E+01  0.182E+01
   2.088  0.120E+01  0.119E+01
   2.098  0.107E+01  0.106E+01
   2.108  0.113E+01  0.113E+01
   2.118  0.877E+00  0.871E+00
   2.128  0.181E+01  0.180E+01
   2.138  0.204E+01  0.203E+01
   2.148  0.726E+00  0.719E+00
   2.158  0.818E+00  0.812E+00
   2.168  0.219E+01  0.218E+01
   2.178  0.172E+01  0.170E+01
   2.188  0.996E+00  0.989E+00
   2.198  0.105E+01  0.105E+01
   2.208  0.140E+01  0.139E+01
   2.218  0.951E+00  0.943E+00
   2.228  0.506E+00  0.502E+00
   2.238  0.898E+00  0.889E+00
   2.248  0.146E+01  0.145E+01
   2.258  0.991E+00  0.982E+00
   2.268  0.937E+00  0.930E+00
   2.278  0.624E+00  0.620E+00
   2.288  0.994E+00  0.988E+00
   2.298  0.564E+00  0.561E+00
   2.308  0.818E+00  0.812E+00
   2.318  0.153E+01  0.152E+01
   2.328  0.722E+00  0.715E+00
   2.338  0.527E+00  0.524E+00
   2.348  0.617E+00  0.613E+00
   2.358  0.135E+01  0.134E+01
   2.368  0.164E+01  0.163E+01
   2.378  0.773E+00  0.768E+00
   2.388  0.479E+00  0.475E+00
   2.398  0.132E+01  0.131E+01
   2.408  0.112E+01  0.112E+01
   2.418  0.709E+00  0.705E+00
   2.428  0.570E+00  0.566E+00
   2.438  0.591E+00  0.586E+00
   2.448  0.145E+00  0.144E+00
   2.458  0.731E+00  0.726E+00
   2.468  0.242E+01  0.240E+01
   2.478  0.230E+01  0.229E+01
   2.488  0.116E+01  0.115E+01
   2.498  0.524E+00  0.520E+00
   2.508  0.712E+00  0.703E+00
   2.518  0.812E+00  0.801E+00
   2.528  0.581E+00  0.573E+00
   2.538  0.525E+00  0.518E+00
   2.548  0.565E+00  0.559E+00
   2.558  0.133E+01  0.132E+01
   2.568  0.226E+01  0.225E+01
   2.578  0.975E+00  0.969E+00
   2.588  0.231E+00  0.229E+00
   2.598  0.335E+00  0.332E+00
   2.608  0.105E+00  0.104E+00
   2.618  0.376E+00  0.374E+00
   2.628  0.246E+01  0.244E+01
   2.638  0.272E+01  0.270E+01
   2.648  0.124E+01  0.123E+01
   2.658  0.550E+00  0.545E+00
   2.668  0.635E+00  0.631E+00
   2.678  0.161E+01  0.160E+01
   2.688  0.173E+01  0.172E+01
   2.698  0.156E+01  0.155E+01
   2.708  0.141E+01  0.140E+01
   2.718  0.703E+00  0.698E+00
   2.728  0.808E+00  0.803E+00
   2.738  0.104E+01  0.104E+01
   2.748  0.696E+00  0.690E+00
   2.758  0.594E+00  0.586E+00
   2.768  0.106E+01  0.105E+01
   2.778  0.832E+00  0.826E+00
   2.788  0.435E+00  0.432E+00
   2.798  0.208E+00  0.207E+00
   2.808  0.319E+00  0.316E+00
   2.818  0.786E+00  0.777E+00
   2.828  0.118E+01  0.117E+01
   2.838  0.154E+01  0.153E+01
   2.848  0.204E+01  0.202E+01
   2.858  0.210E+01  0.208E+01
   2.868  0.162E+01  0.161E+01
   2.878  0.112E+01  0.111E+01
   2.888  0.627E+00  0.622E+00
   2.898  0.728E+00  0.722E+00
   2.908  0.704E+00  0.699E+00
   2.918  0.726E+00  0.721E+00
   2.928  0.825E+00  0.820E+00
   2.938  0.567E+00  0.564E+00
   2.948  0.602E+00  0.597E+00
   2.958  0.983E+00  0.976E+00
   2.968  0.106E+01  0.106E+01
   2.978  0.225E+01  0.223E+01
   2.988  0.258E+01  0.256E+01
   2.998  0.129E+01  0.128E+01
   3.008  0.137E+01  0.136E+01
   3.018  0.129E+01  0.128E+01
   3.028  0.843E+00  0.835E+00
   3.038  0.862E+00  0.854E+00
   3.048  0.649E+00  0.641E+00
   3.058  0.108E+01  0.107E+01
   3.068  0.163E+01  0.161E+01
   3.078  0.101E+01  0.100E+01
   3.088  0.673E+00  0.668E+00
   3.098  0.374E+00  0.371E+00
   3.108  0.135E+00  0.135E+00
   3.118  0.880E+00  0.874E+00
   3.128  0.159E+01  0.158E+01
   3.138  0.230E+01  0.228E+01
   3.148  0.230E+01  0.227E+01
   3.158  0.104E+01  0.103E+01
   3.168  0.992E+00  0.984E+00
   3.178  0.757E+00  0.751E+00
   3.188  0.762E+00  0.755E+00
   3.198  0.106E+01  0.105E+01
   3.208  0.923E+00  0.915E+00
   3.218  0.388E+00  0.385E+00
   3.228  0.107E+00  0.106E+00
   3.238  0.105E+01  0.104E+01
   3.248  0.272E+01  0.270E+01
   3.258  0.251E+01  0.249E+01
   3.268  0.162E+01  0.161E+01
   3.278  0.125E+01  0.124E+01
   3.288  0.154E+01  0.153E+01
   3.298  0.167E+01  0.165E+01
   3.308  0.102E+01  0.101E+01
   3.318  0.117E+01  0.116E+01
   3.328  0.137E+01  0.136E+01
   3.338  0.266E+01  0.264E+01
   3.348  0.278E+01  0.275E+01
   3.358  0.155E+01  0.153E+01
   3.368  0.174E+01  0.172E+01
   3.378  0.143E+01  0.142E+01
   3.388  0.764E+00  0.758E+00
   3.398  0.186E+01  0.184E+01
   3.408  0.136E+01  0.135E+01
   3.418  0.119E+01  0.118E+01
   3.428  0.221E+01  0.219E+01
   3.438  0.167E+01  0.165E+01
   3.448  0.149E+01  0.148E+01
   3.458  0.122E+01  0.121E+01
   3.468  0.132E+01  0.131E+01
   3.478  0.192E+01  0.190E+01
   3.488  0.175E+01  0.173E+01
   3.498  0.160E+01  0.158E+01
   3.508  0.169E+01  0.167E+01
   3.518  0.987E+00  0.979E+00
   3.528  0.642E+00  0.637E+00
   3.538  0.154E+01  0.152E+01
   3.548  0.129E+01  0.128E+01
   3.558  0.597E+00  0.593E+00
   3.568  0.317E+00  0.315E+00
   3.578  0.642E+00  0.637E+00
   3.588  0.921E+00  0.912E+00
   3.598  0.855E+00  0.847E+00
   3.608  0.455E+00  0.451E+00
   3.618  0.405E+00  0.402E+00
   3.628  0.589E+00  0.585E+00
   3.638  0.147E+01  0.145E+01
   3.648  0.135E+01  0.134E+01
   3.658  0.828E+00  0.821E+00
   3.668  0.270E+01  0.267E+01
   3.678  0.372E+01  0.369E+01
   3.688  0.308E+01  0.305E+01
   3.698  0.166E+01  0.164E+01
   3.708  0.133E+01  0.132E+01
   3.718  0.103E+01  0.102E+01
   3.728  0.118E+01  0.117E+01
   3.738  0.269E+01  0.267E+01
   3.748  0.322E+01  0.319E+01
   3.758  0.238E+01  0.236E+01
   3.768  0.135E+01  0.134E+01
   3.778  0.185E+01  0.183E+01
   3.788  0.176E+01  0.174E+01
   3.798  0.111E+01  0.110E+01
   3.808  0.116E+01  0.115E+01
   3.818  0.151E+01  0.150E+01
   3.828  0.970E+00  0.962E+00
   3.838  0.116E+01  0.114E+01
   3.848  0.936E+00  0.925E+00
   3.858  0.321E+00  0.317E+00
   3.868  0.301E+00  0.299E+00
   3.878  0.858E+00  0.850E+00
   3.888  0.119E+01  0.118E+01
   3.898  0.140E+01  0.139E+01
   3.908  0.558E+00  0.553E+00
   3.918  0.840E+00  0.831E+00
   3.928  0.187E+01  0.185E+01
   3.938  0.187E+01  0.186E+01
   3.948  0.661E+00  0.655E+00
   3.958  0.275E+00  0.273E+00
   3.968  0.677E+00  0.671E+00
   3.978  0.921E+00  0.912E+00
   3.988  0.954E+00  0.945E+00
   3.998  0.164E+01  0.162E+01
   4.008  0.196E+01  0.194E+01
   4.018  0.219E+01  0.217E+01
   4.028  0.194E+01  0.192E+01
   4.038  0.272E+01  0.268E+01
   4.048  0.171E+01  0.169E+01
   4.058  0.546E+00  0.540E+00
   4.068  0.940E+00  0.930E+00
   4.078  0.148E+01  0.146E+01
   4.088  0.151E+01  0.149E+01
   4.098  0.149E+01  0.147E+01
   4.108  0.191E+01  0.188E+01
   4.118  0.123E+01  0.121E+01
   4.128  0.906E+00  0.895E+00
   4.138  0.113E+01  0.112E+01
   4.148  0.167E+01  0.165E+01
   4.158  0.118E+01  0.117E+01
   4.168  0.164E+01  0.162E+01
   4.178  0.134E+01  0.132E+01
   4.188  0.119E+01  0.118E+01
   4.198  0.916E+00  0.905E+00
   4.208  0.787E+00  0.779E+00
   4.218  0.903E+00  0.894E+00
   4.228  0.192E+01  0.190E+01
   4.238  0.229E+01  0.226E+01
   4.248  0.132E+01  0.130E+01
   4.258  0.120E+01  0.118E+01
   4.268  0.381E+00  0.377E+00
   4.278  0.810E-01  0.801E-01
   4.288  0.589E+00  0.583E+00
   4.298  0.140E+01  0.139E+01
   4.308  0.628E+00  0.622E+00
   4.318  0.597E+00  0.590E+00
   4.328  0.247E+01  0.244E+01
   4.338  0.244E+01  0.241E+01
   4.348  0.974E+00  0.963E+00
   4.358  0.360E+00  0.355E+00
   4.368  0.997E+00  0.985E+00
   4.378  0.166E+01  0.164E+01
   4.388  0.150E+01  0.148E+01
   4.398  0.108E+01  0.107E+01
   4.408  0.133E+01  0.131E+01
   4.418  0.168E+01  0.166E+01
   4.428  0.210E+01  0.208E+01
   4.438  0.125E+01  0.123E+01
   4.448  0.127E+01  0.125E+01
   4.458  0.106E+01  0.105E+01
   4.468  0.894E+00  0.883E+00
   4.478  0.116E+01  0.114E+01
   4.488  0.138E+01  0.136E+01
   4.498  0.256E+01  0.253E+01
   4.508  0.165E+01  0.163E+01
   4.518  0.301E+00  0.297E+00
   4.528  0.483E+00  0.476E+00
   4.538  0.906E+00  0.892E+00
   4.548  0.354E+00  0.349E+00
   4.558  0.112E+00  0.110E+00
   4.568  0.588E+00  0.581E+00
   4.578  0.907E+00  0.897E+00
   4.588  0.103E+01  0.102E+01
   4.598  0.145E+01  0.143E+01
   4.608  0.164E+01  0.162E+01
   4.618  0.144E+01  0.142E+01
   4.628  0.126E+01  0.125E+01
   4.638  0.148E+01  0.146E+01
   4.648  0.181E+01  0.178E+01
   4.658  0.143E+01  0.141E+01
   4.668  0.856E+00  0.845E+00
   4.678  0.110E+01  0.109E+01
   4.688  0.110E+01  0.109E+01
   4.698  0.973E+00  0.958E+00
   4.708  0.141E+01  0.139E+01
   4.718  0.133E+01  0.131E+01
   4.728  0.960E+00  0.948E+00
   4.738  0.122E+01  0.121E+01
   4.748  0.132E+01  0.131E+01
   4.758  0.257E+01  0.253E+01
   4.768  0.189E+01  0.187E+01
   4.778  0.877E+00  0.865E+00
   4.788  0.335E+00  0.330E+00
   4.798  0.159E+00  0.157E+00
   4.808  0.707E+00  0.697E+00
   4.818  0.773E+00  0.760E+00
   4.828  0.904E+00  0.890E+00
   4.838  0.159E+01  0.157E+01
   4.848  0.113E+01  0.112E+01
   4.858  0.119E+01  0.117E+01
   4.868  0.213E+01  0.210E+01
   4.878  0.102E+01  0.100E+01
   4.888  0.319E+00  0.315E+00
   4.898  0.305E+00  0.300E+00
   4.908  0.660E+00  0.651E+00
   4.918  0.107E+01  0.105E+01
   4.928  0.946E+00  0.933E+00
   4.938  0.126E+01  0.124E+01
   4.948  0.189E+01  0.186E+01
   4.958  0.183E+01  0.181E+01
   4.968  0.157E+01  0.155E+01
   4.978  0.209E+01  0.206E+01
   4.988  0.130E+01  0.128E+01
   4.998  0.867E+00  0.854E+00
   5.008  0.731E+00  0.720E+00
   5.018  0.401E+00  0.395E+00
   5.028  0.330E+00  0.325E+00
   5.038  0.841E-01  0.828E-01
   5.048  0.424E+00  0.418E+00
   5.058  0.755E+00  0.742E+00
   5.068  0.301E+00  0.296E+00
   5.078  0.590E+00  0.582E+00
   5.088  0.114E+01  0.112E+01
   5.098  0.108E+01  0.106E+01
   5.108  0.138E+01  0.136E+01
   5.118  0.150E+01  0.148E+01
   5.128  0.102E+01  0.101E+01
   5.138  0.937E+00  0.921E+00
   5.148  0.904E+00  0.888E+00
   5.158  0.507E+00  0.498E+00
   5.168  0.610E+00  0.601E+00
   5.178  0.968E+00  0.953E+00
   5.188  0.497E+00  0.488E+00
   5.198  0.227E+00  0.223E+00
   5.208  0.807E+00  0.795E+00
   5.218  0.756E+00  0.745E+00
   5.228  0.382E+00  0.376E+00
   5.238  0.302E+00  0.297E+00
   5.248  0.376E+00  0.370E+00
   5.258  0.787E+00  0.774E+00
   5.268  0.926E+00  0.911E+00
   5.278  0.397E+00  0.389E+00
   5.288  0.450E+00  0.442E+00
   5.298  0.799E+00  0.783E+00
   5.308  0.428E+00  0.419E+00
   5.318  0.548E+00  0.538E+00
   5.328  0.788E+00  0.773E+00
   5.338  0.503E+00  0.493E+00
   5.348  0.486E+00  0.478E+00
   5.358  0.797E+00  0.783E+00
   5.368  0.662E+00  0.650E+00
   5.378  0.244E+00  0.240E+00
   5.388  0.780E+00  0.767E+00
   5.398  0.710E+00  0.697E+00
   5.408  0.146E+00  0.143E+00
   5.418  0.121E+00  0.118E+00
   5.428  0.669E+00  0.656E+00
   5.438  0.105E+01  0.103E+01
   5.448  0.105E+01  0.102E+01
   5.458  0.101E+01  0.990E+00
   5.468  0.719E+00  0.704E+00
   5.478  0.253E+00  0.246E+00
   5.488  0.724E-01  0.709E-01
   5.498  0.296E+00  0.291E+00
   5.508  0.454E+00  0.445E+00
   5.518  0.343E+00  0.335E+00
   5.528  0.130E+00  0.127E+00
   5.538  0.315E+00  0.309E+00
   5.548  0.204E+00  0.200E+00
   5.558  0.102E+00  0.999E-01
   5.568  0.535E+00  0.523E+00
   5.578  0.537E+00  0.525E+00
   5.588  0.453E+00  0.444E+00
   5.598  0.640E+00  0.628E+00
   5.608  0.151E+00  0.148E+00
   5.618  0.148E+00  0.145E+00
   5.628  0.601E+00  0.586E+00
   5.638  0.496E+00  0.483E+00
   5.648  0.369E+00  0.360E+00
   5.658  0.746E+00  0.729E+00
   5.668  0.525E+00  0.513E+00
   5.678  0.198E+00  0.194E+00
   5.688  0.164E-01  0.160E-01
   5.698  0.498E-01  0.488E-01
   5.708  0.292E+00  0.286E+00
   5.718  0.256E+00  0.251E+00
   5.728  0.255E+00  0.249E+00
   5.738  0.304E+00  0.297E+00
   5.748  0.206E+00  0.201E+00
   5.758  0.354E+00  0.346E+00
   5.768  0.231E+00  0.226E+00
   5.778  0.134E+00  0.131E+00
   5.788  0.172E-01  0.169E-01
   5.798  0.383E-03  0.375E-03
   5.808  0.114E-01  0.111E-01
   5.818  0.260E+00  0.253E+00
   5.828  0.880E+00  0.857E+00
   5.838  0.575E+00  0.560E+00
   5.848  0.625E+00  0.607E+00
   5.858  0.731E+00  0.709E+00
   5.868  0.207E+00  0.201E+00
   5.878  0.952E-02  0.924E-02
   5.888  0.259E-01  0.253E-01
   5.898  0.235E+00  0.230E+00
   5.908  0.300E+00  0.293E+00
   5.918  0.230E+00  0.224E+00
   5.928  0.556E+00  0.540E+00
   5.938  0.477E+00  0.463E+00
   5.948  0.118E+00  0.114E+00
   5.958  0.654E-02  0.632E-02
   5.968  0.877E-02  0.849E-02
   5.978  0.147E+00  0.142E+00
   5.988  0.336E+00  0.325E+00
   5.998  0.110E+00  0.106E+00
   6.008  0.104E+00  0.100E+00
   6.018  0.226E+00  0.219E+00
   6.028  0.134E+00  0.130E+00
   6.038  0.289E+00  0.279E+00
   6.048  0.217E+00  0.210E+00
   6.058  0.284E-01  0.275E-01
   6.068  0.396E-02  0.383E-02
   6.078  0.910E-01  0.881E-01
   6.088  0.331E+00  0.321E+00
   6.098  0.163E+00  0.158E+00
   6.108  0.109E-01  0.105E-01
   6.118  0.983E-04  0.952E-04
   6.128  0.849E-06  0.819E-06
   6.138  0.329E-03  0.317E-03
   6.148  0.201E-01  0.193E-01
   6.158  0.167E+00  0.160E+00
   6.168  0.216E+00  0.208E+00
   6.178  0.183E+00  0.176E+00
   6.188  0.105E+00  0.101E+00
   6.198  0.976E-02  0.941E-02
   6.208  0.934E-02  0.897E-02
   6.218  0.401E-01  0.385E-01
   6.228  0.235E-01  0.226E-01
   6.238  0.187E-02  0.180E-02
   6.248  0.202E-04  0.194E-04
   6.258  0.294E-07  0.283E-07
   6.268  0.580E-11  0.558E-11
   6.278  0.155E-15  0.149E-15
   6.288  0.000E+00  0.000E+00
   6.298  0.000E+00  0.000E+00
   6.308  0.000E+00  0.000E+00
   6.318  0.000E+00  0.000E+00
   6.328  0.000E+00  0.000E+00
   6.338  0.000E+00  0.000E+00
   6.348  0.000E+00  0.000E+00
   6.358  0.000E+00  0.000E+00
   6.368  0.000E+00  0.000E+00
   6.378  0.000E+00  0.000E+00
   6.388  0.000E+00  0.000E+00
   6.398  0.000E+00  0.000E+00
   6.408  0.000E+00  0.000E+00
   6.418  0.000E+00  0.000E+00
   6.428  0.000E+00  0.000E+00
   6.438  0.000E+00  0.000E+00
   6.448  0.000E+00  0.000E+00
   6.458  0.000E+00  0.000E+00
   6.468  0.000E+00  0.000E+00
   6.478  0.000E+00  0.000E+00
   6.488  0.000E+00  0.000E+00
   6.498  0.000E+00  0.000E+00
   6.508  0.000E+00  0.000E+00
   6.518  0.000E+00  0.000E+00
   6.528  0.000E+00  0.000E+00
   6.538  0.000E+00  0.000E+00
   6.548  0.000E+00  0.000E+00
   6.558  0.000E+00  0.000E+00
   6.568  0.000E+00  0.000E+00
   6.578  0.000E+00  0.000E+00
   6.588  0.000E+00  0.000E+00
   6.598  0.000E+00  0.000E+00
   6.608  0.145E-17  0.131E-17
   6.618  0.134E-12  0.122E-12
   6.628  0.170E-08  0.154E-08
   6.638  0.295E-05  0.267E-05
   6.648  0.722E-03  0.651E-03
   6.658  0.257E-01  0.231E-01
   6.668  0.139E+00  0.124E+00
   6.678  0.118E+00  0.105E+00
   6.688  0.159E-01  0.140E-01
   6.698  0.320E-03  0.282E-03
   6.708  0.935E-06  0.822E-06
   6.718  0.382E-09  0.336E-09
   6.728  0.326E-08  0.292E-08
   6.738  0.682E-05  0.609E-05
   6.748  0.193E-02  0.172E-02
   6.758  0.737E-01  0.659E-01
   6.768  0.382E+00  0.341E+00
   6.778  0.291E+00  0.259E+00
   6.788  0.261E+00  0.222E+00
   6.798  0.388E+00  0.329E+00
   6.808  0.992E-01  0.842E-01
   6.818  0.394E-01  0.357E-01
   6.828  0.264E+00  0.241E+00
   6.838  0.263E+00  0.240E+00
   6.848  0.357E-01  0.325E-01
   6.858  0.112E-01  0.943E-02
   6.868  0.109E+00  0.909E-01
   6.878  0.152E+00  0.127E+00
   6.888  0.624E-01  0.526E-01
   6.898  0.260E+00  0.220E+00
   6.908  0.271E+00  0.229E+00
   6.918  0.135E+00  0.117E+00
   6.928  0.543E+00  0.478E+00
   6.938  0.486E+00  0.432E+00
   6.948  0.716E-01  0.641E-01
   6.958  0.326E-01  0.306E-01
   6.968  0.918E-01  0.858E-01
   6.978  0.237E+00  0.211E+00
   6.988  0.889E+00  0.783E+00
   6.998  0.623E+00  0.546E+00
   7.008  0.759E-01  0.664E-01
   7.018  0.374E-01  0.302E-01
   7.028  0.327E+00  0.273E+00
   7.038  0.686E+00  0.595E+00
   7.048  0.343E+00  0.301E+00
   7.058  0.328E+00  0.268E+00
   7.068  0.248E+00  0.202E+00
   7.078  0.291E+00  0.244E+00
   7.088  0.363E+00  0.305E+00
   7.098  0.627E+00  0.522E+00
   7.108  0.490E+00  0.408E+00
   7.118  0.209E+00  0.174E+00
   7.128  0.182E+00  0.154E+00
   7.138  0.579E+00  0.498E+00
   7.148  0.647E+00  0.562E+00
   7.158  0.427E+00  0.379E+00
   7.168  0.361E+00  0.307E+00
   7.178  0.271E+00  0.226E+00
   7.188  0.126E+00  0.104E+00
   7.198  0.332E+00  0.274E+00
   7.208  0.166E+00  0.137E+00
   7.218  0.608E-01  0.558E-01
   7.228  0.477E+00  0.439E+00
   7.238  0.143E+01  0.127E+01
   7.248  0.157E+01  0.137E+01
   7.258  0.897E+00  0.748E+00
   7.268  0.467E+00  0.385E+00
   7.278  0.577E-01  0.483E-01
   7.288  0.148E-02  0.125E-02
   7.298  0.257E-01  0.214E-01
   7.308  0.256E+00  0.212E+00
   7.318  0.605E+00  0.486E+00
   7.328  0.701E+00  0.557E+00
   7.338  0.274E+00  0.222E+00
   7.348  0.538E+00  0.444E+00
   7.358  0.676E+00  0.561E+00
   7.368  0.713E+00  0.600E+00
   7.378  0.438E+00  0.372E+00
   7.388  0.374E+00  0.331E+00
   7.398  0.309E+00  0.267E+00
   7.408  0.110E+00  0.921E-01
   7.418  0.531E+00  0.459E+00
   7.428  0.893E+00  0.795E+00
   7.438  0.375E+00  0.333E+00
   7.448  0.565E+00  0.468E+00
   7.458  0.504E+00  0.417E+00
   7.468  0.626E-01  0.517E-01
   7.478  0.105E-02  0.869E-03
   7.488  0.179E-03  0.156E-03
   7.498  0.216E-01  0.189E-01
   7.508  0.395E+00  0.346E+00
   7.518  0.113E+01  0.984E+00
   7.528  0.525E+00  0.458E+00
   7.538  0.164E+00  0.152E+00
   7.548  0.350E+00  0.331E+00
   7.558  0.426E+00  0.369E+00
   7.568  0.150E+01  0.125E+01
   7.578  0.163E+01  0.138E+01
   7.588  0.842E+00  0.713E+00
   7.598  0.676E+00  0.561E+00
   7.608  0.696E+00  0.548E+00
   7.618  0.288E+00  0.225E+00
   7.628  0.585E+00  0.475E+00
   7.638  0.119E+01  0.957E+00
   7.648  0.945E+00  0.774E+00
   7.658  0.218E+00  0.180E+00
   7.668  0.364E+00  0.298E+00
   7.678  0.114E+01  0.977E+00
   7.688  0.110E+01  0.976E+00
   7.698  0.359E+00  0.329E+00
   7.708  0.335E+00  0.294E+00
   7.718  0.121E+01  0.103E+01
   7.728  0.110E+01  0.904E+00
   7.738  0.101E+01  0.784E+00
   7.748  0.751E+00  0.597E+00
   7.758  0.142E+00  0.115E+00
   7.768  0.378E+00  0.310E+00
   7.778  0.902E+00  0.732E+00
   7.788  0.503E+00  0.410E+00
   7.798  0.150E+00  0.134E+00
   7.808  0.555E-01  0.473E-01
   7.818  0.325E+00  0.240E+00
   7.828  0.863E+00  0.657E+00
   7.838  0.172E+01  0.144E+01
   7.848  0.215E+01  0.183E+01
   7.858  0.930E+00  0.818E+00
   7.868  0.782E+00  0.635E+00
   7.878  0.398E+00  0.312E+00
   7.888  0.196E+00  0.152E+00
   7.898  0.601E+00  0.507E+00
   7.908  0.117E+01  0.102E+01
   7.918  0.168E+01  0.146E+01
   7.928  0.942E+00  0.787E+00
   7.938  0.499E+00  0.376E+00
   7.948  0.997E+00  0.826E+00
   7.958  0.192E+01  0.162E+01
   7.968  0.210E+01  0.176E+01
   7.978  0.121E+01  0.103E+01
   7.988  0.666E+00  0.606E+00
   7.998  0.987E+00  0.919E+00
   8.008  0.765E+00  0.700E+00
   8.018  0.718E+00  0.599E+00
   8.028  0.949E+00  0.790E+00
   8.038  0.129E+01  0.111E+01
   8.048  0.896E+00  0.775E+00
   8.058  0.560E+00  0.492E+00
   8.068  0.575E+00  0.496E+00
   8.078  0.101E+01  0.799E+00
   8.088  0.163E+01  0.129E+01
   8.098  0.106E+01  0.860E+00
   8.108  0.189E+00  0.152E+00
   8.118  0.577E-02  0.463E-02
   8.128  0.742E-04  0.603E-04
   8.138  0.877E-02  0.719E-02
   8.148  0.229E+00  0.189E+00
   8.158  0.116E+01  0.977E+00
   8.168  0.216E+01  0.184E+01
   8.178  0.228E+01  0.182E+01
   8.188  0.213E+01  0.171E+01
   8.198  0.979E+00  0.823E+00
   8.208  0.398E+00  0.366E+00
   8.218  0.417E+00  0.390E+00
   8.228  0.326E+00  0.309E+00
   8.238  0.565E+00  0.507E+00
   8.248  0.172E+01  0.146E+01
   8.258  0.194E+01  0.164E+01
   8.268  0.113E+01  0.951E+00
   8.278  0.127E+01  0.103E+01
   8.288  0.200E+01  0.161E+01
   8.298  0.229E+01  0.194E+01
   8.308  0.136E+01  0.120E+01
   8.318  0.104E+01  0.921E+00
   8.328  0.177E+01  0.150E+01
   8.338  0.211E+01  0.175E+01
   8.348  0.181E+01  0.153E+01
   8.358  0.251E+01  0.215E+01
   8.368  0.214E+01  0.183E+01
   8.378  0.110E+01  0.931E+00
   8.388  0.647E+00  0.540E+00
   8.398  0.128E+01  0.105E+01
   8.408  0.130E+01  0.113E+01
   8.418  0.782E+00  0.704E+00
   8.428  0.603E+00  0.542E+00
   8.438  0.272E+00  0.238E+00
   8.448  0.787E+00  0.695E+00
   8.458  0.109E+01  0.938E+00
   8.468  0.208E+01  0.164E+01
   8.478  0.282E+01  0.227E+01
   8.488  0.175E+01  0.149E+01
   8.498  0.564E+00  0.499E+00
   8.508  0.131E+01  0.117E+01
   8.518  0.155E+01  0.134E+01
   8.528  0.211E+01  0.176E+01
   8.538  0.241E+01  0.201E+01
   8.548  0.256E+01  0.218E+01
   8.558  0.242E+01  0.205E+01
   8.568  0.212E+01  0.184E+01
   8.578  0.164E+01  0.146E+01
   8.588  0.796E+00  0.716E+00
   8.598  0.128E+01  0.114E+01
   8.608  0.198E+01  0.172E+01
   8.618  0.243E+01  0.196E+01
   8.628  0.350E+01  0.278E+01
   8.638  0.149E+01  0.124E+01
   8.648  0.455E+00  0.422E+00
   8.658  0.166E+00  0.129E+00
   8.668  0.897E+00  0.563E+00
   8.678  0.137E+01  0.875E+00
   8.688  0.178E+01  0.134E+01
   8.698  0.307E+01  0.255E+01
   8.708  0.196E+01  0.178E+01
   8.718  0.831E+00  0.744E+00
   8.728  0.107E+01  0.906E+00
   8.738  0.632E+00  0.557E+00
   8.748  0.452E+00  0.415E+00
   8.758  0.936E+00  0.794E+00
   8.768  0.122E+01  0.104E+01
   8.778  0.126E+01  0.112E+01
   8.788  0.135E+01  0.111E+01
   8.798  0.135E+01  0.106E+01
   8.808  0.206E+01  0.173E+01
   8.818  0.199E+01  0.171E+01
   8.828  0.125E+01  0.103E+01
   8.838  0.677E+00  0.589E+00
   8.848  0.771E+00  0.673E+00
   8.858  0.151E+01  0.130E+01
   8.868  0.926E+00  0.811E+00
   8.878  0.152E+00  0.129E+00
   8.888  0.685E+00  0.534E+00
   8.898  0.191E+01  0.153E+01
   8.908  0.171E+01  0.138E+01
   8.918  0.174E+01  0.134E+01
   8.928  0.229E+01  0.183E+01
   8.938  0.181E+01  0.150E+01
   8.948  0.124E+01  0.101E+01
   8.958  0.764E+00  0.546E+00
   8.968  0.690E+00  0.524E+00
   8.978  0.514E+00  0.449E+00
   8.988  0.304E+00  0.282E+00
   8.998  0.457E+00  0.406E+00
   9.008  0.120E+01  0.936E+00
   9.018  0.176E+01  0.126E+01
   9.028  0.169E+01  0.138E+01
   9.038  0.186E+01  0.166E+01
   9.048  0.873E+00  0.781E+00
   9.058  0.112E+01  0.928E+00
   9.068  0.161E+01  0.131E+01
   9.078  0.120E+01  0.988E+00
   9.088  0.102E+01  0.871E+00
   9.098  0.125E+01  0.113E+01
   9.108  0.785E+00  0.743E+00
   9.118  0.373E+00  0.345E+00
   9.128  0.652E+00  0.535E+00
   9.138  0.877E+00  0.683E+00
   9.148  0.745E+00  0.561E+00
   9.158  0.414E+00  0.351E+00
   9.168  0.301E+00  0.264E+00
   9.178  0.271E+00  0.157E+00
   9.188  0.321E+00  0.179E+00
   9.198  0.263E+00  0.210E+00
   9.208  0.709E+00  0.513E+00
   9.218  0.943E+00  0.681E+00
   9.228  0.553E+00  0.436E+00
   9.238  0.107E+01  0.936E+00
   9.248  0.141E+01  0.126E+01
   9.258  0.117E+01  0.105E+01
   9.268  0.619E+00  0.539E+00
   9.278  0.535E+00  0.427E+00
   9.288  0.704E+00  0.503E+00
   9.298  0.200E+01  0.136E+01
   9.308  0.196E+01  0.137E+01
   9.318  0.195E+01  0.158E+01
   9.328  0.270E+01  0.230E+01
   9.338  0.213E+01  0.187E+01
   9.348  0.215E+01  0.181E+01
   9.358  0.172E+01  0.128E+01
   9.368  0.167E+01  0.111E+01
   9.378  0.104E+01  0.730E+00
   9.388  0.789E+00  0.588E+00
   9.398  0.565E+00  0.365E+00
   9.408  0.114E+01  0.726E+00
   9.418  0.205E+01  0.155E+01
   9.428  0.241E+01  0.181E+01
   9.438  0.334E+01  0.251E+01
   9.448  0.320E+01  0.249E+01
   9.458  0.159E+01  0.135E+01
   9.468  0.290E+01  0.246E+01
   9.478  0.288E+01  0.229E+01
   9.488  0.228E+01  0.177E+01
   9.498  0.257E+01  0.198E+01
   9.508  0.323E+01  0.242E+01
   9.518  0.286E+01  0.218E+01
   9.528  0.260E+01  0.198E+01
   9.538  0.177E+01  0.140E+01
   9.548  0.142E+01  0.112E+01
   9.558  0.121E+01  0.103E+01
   9.568  0.176E+01  0.158E+01
   9.578  0.155E+01  0.129E+01
   9.588  0.176E+01  0.130E+01
   9.598  0.365E+01  0.268E+01
   9.608  0.310E+01  0.235E+01
   9.618  0.178E+01  0.143E+01
   9.628  0.195E+01  0.160E+01
   9.638  0.250E+01  0.202E+01
   9.648  0.249E+01  0.205E+01
   9.658  0.117E+01  0.965E+00
   9.668  0.863E+00  0.613E+00
   9.678  0.810E+00  0.530E+00
   9.688  0.462E+00  0.388E+00
   9.698  0.391E+00  0.350E+00
   9.708  0.588E+00  0.430E+00
   9.718  0.176E+01  0.126E+01
   9.728  0.287E+01  0.216E+01
   9.738  0.130E+01  0.975E+00
   9.748  0.379E+00  0.255E+00
   9.758  0.118E+01  0.787E+00
   9.768  0.154E+01  0.105E+01
   9.778  0.123E+01  0.964E+00
   9.788  0.125E+01  0.107E+01
   9.798  0.134E+01  0.109E+01
   9.808  0.185E+01  0.147E+01
   9.818  0.230E+01  0.188E+01
   9.828  0.233E+01  0.184E+01
   9.838  0.413E+01  0.307E+01
   9.848  0.224E+01  0.171E+01
   9.858  0.116E+01  0.101E+01
   9.868  0.145E+01  0.117E+01
   9.878  0.162E+01  0.124E+01
   9.888  0.157E+01  0.123E+01
   9.898  0.240E+01  0.178E+01
   9.908  0.191E+01  0.150E+01
   9.918  0.192E+01  0.145E+01
   9.928  0.338E+01  0.242E+01
   9.938  0.194E+01  0.137E+01
   9.948  0.756E+00  0.601E+00
   9.958  0.100E+01  0.848E+00
   9.968  0.434E+00  0.349E+00
   9.978  0.104E+01  0.707E+00
   9.988  0.118E+01  0.790E+00
   9.998  0.114E+01  0.918E+00
  10.008  0.165E+01  0.132E+01
  10.018  0.153E+01  0.113E+01
  10.028  0.273E+01  0.188E+01
  10.038  0.183E+01  0.123E+01
  10.048  0.559E+00  0.420E+00
  10.058  0.131E+01  0.115E+01
  10.068  0.113E+01  0.965E+00
  10.078  0.356E+00  0.266E+00
  10.088  0.691E+00  0.436E+00
  10.098  0.127E+01  0.899E+00
  10.108  0.140E+01  0.107E+01
  10.118  0.153E+01  0.111E+01
  10.128  0.121E+01  0.853E+00
  10.138  0.131E+01  0.978E+00
  10.148  0.144E+01  0.109E+01
  10.158  0.175E+01  0.128E+01
  10.168  0.160E+01  0.115E+01
  10.178  0.521E+00  0.391E+00
  10.188  0.115E+01  0.941E+00
  10.198  0.244E+01  0.205E+01
  10.208  0.135E+01  0.116E+01
  10.218  0.662E+00  0.601E+00
  10.228  0.593E+00  0.498E+00
  10.238  0.515E+00  0.345E+00
  10.248  0.292E+00  0.224E+00
  10.258  0.328E+00  0.239E+00
  10.268  0.129E+01  0.903E+00
  10.278  0.209E+01  0.145E+01
  10.288  0.234E+01  0.172E+01
  10.298  0.196E+01  0.145E+01
  10.308  0.780E+00  0.574E+00
  10.318  0.701E+00  0.524E+00
  10.328  0.920E+00  0.610E+00
  10.338  0.961E+00  0.563E+00
  10.348  0.162E+01  0.967E+00
  10.358  0.181E+01  0.121E+01
  10.368  0.167E+01  0.128E+01
  10.378  0.874E+00  0.712E+00
  10.388  0.479E+00  0.393E+00
  10.398  0.784E+00  0.466E+00
  10.408  0.134E+01  0.828E+00
  10.418  0.144E+01  0.102E+01
  10.428  0.314E+01  0.227E+01
  10.438  0.281E+01  0.186E+01
  10.448  0.187E+01  0.117E+01
  10.458  0.229E+01  0.173E+01
  10.468  0.161E+01  0.128E+01
  10.478  0.970E+00  0.829E+00
  10.488  0.187E+01  0.142E+01
  10.498  0.225E+01  0.157E+01
  10.508  0.115E+01  0.818E+00
  10.518  0.999E+00  0.666E+00
  10.528  0.253E+01  0.157E+01
  10.538  0.245E+01  0.173E+01
  10.548  0.101E+01  0.729E+00
  10.558  0.826E+00  0.530E+00
  10.568  0.777E+00  0.566E+00
  10.578  0.267E+00  0.185E+00
  10.588  0.766E+00  0.486E+00
  10.598  0.137E+01  0.888E+00
  10.608  0.678E+00  0.429E+00
  10.618  0.148E+00  0.105E+00
  10.628  0.727E+00  0.569E+00
  10.638  0.127E+01  0.102E+01
  10.648  0.687E+00  0.470E+00
  10.658  0.118E+01  0.562E+00
  10.668  0.163E+01  0.105E+01
  10.678  0.103E+01  0.779E+00
  10.688  0.202E+00  0.149E+00
  10.698  0.658E+00  0.414E+00
  10.708  0.118E+01  0.649E+00
  10.718  0.558E+00  0.294E+00
  10.728  0.135E+01  0.102E+01
  10.738  0.295E+01  0.223E+01
  10.748  0.158E+01  0.109E+01
  10.758  0.572E+00  0.365E+00
  10.768  0.243E+00  0.160E+00
  10.778  0.143E+01  0.942E+00
  10.788  0.234E+01  0.160E+01
  10.798  0.120E+01  0.835E+00
  10.808  0.179E+01  0.124E+01
  10.818  0.179E+01  0.121E+01
  10.828  0.762E+00  0.515E+00
  10.838  0.492E+00  0.397E+00
  10.848  0.701E+00  0.592E+00
  10.858  0.619E+00  0.441E+00
  10.868  0.107E+01  0.686E+00
  10.878  0.171E+01  0.108E+01
  10.888  0.196E+01  0.127E+01
  10.898  0.256E+01  0.173E+01
  10.908  0.163E+01  0.117E+01
  10.918  0.621E+00  0.481E+00
  10.928  0.547E+00  0.457E+00
  10.938  0.794E+00  0.649E+00
  10.948  0.121E+01  0.714E+00
  10.958  0.148E+01  0.760E+00
  10.968  0.686E+00  0.399E+00
  10.978  0.737E+00  0.558E+00
  10.988  0.686E+00  0.550E+00
  10.998  0.566E+00  0.439E+00
  11.008  0.921E+00  0.677E+00
  11.018  0.144E+01  0.101E+01
  11.028  0.139E+01  0.106E+01
  11.038  0.133E+01  0.974E+00
  11.048  0.128E+01  0.896E+00
  11.058  0.114E+01  0.813E+00
  11.068  0.143E+01  0.101E+01
  11.078  0.103E+01  0.775E+00
  11.088  0.114E+01  0.762E+00
  11.098  0.150E+01  0.102E+01
  11.108  0.120E+01  0.776E+00
  11.118  0.156E+01  0.114E+01
  11.128  0.137E+01  0.115E+01
  11.138  0.116E+01  0.872E+00
  11.148  0.102E+01  0.750E+00
  11.158  0.583E+00  0.379E+00
  11.168  0.157E+01  0.866E+00
  11.178  0.186E+01  0.119E+01
  11.188  0.512E+00  0.349E+00
  11.198  0.136E+00  0.972E-01
  11.208  0.947E+00  0.705E+00
  11.218  0.197E+01  0.151E+01
  11.228  0.206E+01  0.159E+01
  11.238  0.146E+01  0.110E+01
  11.248  0.520E+00  0.378E+00
  11.258  0.160E+01  0.109E+01
  11.268  0.260E+01  0.176E+01
  11.278  0.148E+01  0.908E+00
  11.288  0.127E+01  0.536E+00
  11.298  0.110E+01  0.510E+00
  11.308  0.219E+01  0.127E+01
  11.318  0.173E+01  0.106E+01
  11.328  0.858E+00  0.600E+00
  11.338  0.468E+00  0.259E+00
  11.348  0.670E+00  0.322E+00
  11.358  0.195E+01  0.122E+01
  11.368  0.311E+01  0.227E+01
  11.378  0.252E+01  0.193E+01
  11.388  0.146E+01  0.106E+01
  11.398  0.141E+01  0.914E+00
  11.408  0.145E+01  0.890E+00
  11.418  0.229E+01  0.128E+01
  11.428  0.230E+01  0.127E+01
  11.438  0.892E+00  0.525E+00
  11.448  0.195E+00  0.148E+00
  11.458  0.152E-01  0.132E-01
  11.468  0.195E-01  0.104E-01
  11.478  0.334E+00  0.188E+00
  11.488  0.919E+00  0.585E+00
  11.498  0.622E+00  0.466E+00
  11.508  0.113E+01  0.841E+00
  11.518  0.230E+01  0.157E+01
  11.528  0.196E+01  0.135E+01
  11.538  0.499E+00  0.375E+00
  11.548  0.451E-01  0.307E-01
  11.558  0.296E+00  0.169E+00
  11.568  0.101E+01  0.621E+00
  11.578  0.934E+00  0.552E+00
  11.588  0.827E+00  0.443E+00
  11.598  0.161E+01  0.994E+00
  11.608  0.742E+00  0.520E+00
  11.618  0.385E+00  0.308E+00
  11.628  0.388E+00  0.259E+00
  11.638  0.784E+00  0.456E+00
  11.648  0.211E+01  0.131E+01
  11.658  0.222E+01  0.130E+01
  11.668  0.110E+01  0.553E+00
  11.678  0.274E+00  0.170E+00
  11.688  0.641E+00  0.468E+00
  11.698  0.145E+01  0.849E+00
  11.708  0.114E+01  0.718E+00
  11.718  0.115E+01  0.781E+00
  11.728  0.130E+01  0.800E+00
  11.738  0.686E+00  0.461E+00
  11.748  0.574E+00  0.436E+00
  11.758  0.602E+00  0.449E+00
  11.768  0.823E+00  0.599E+00
  11.778  0.456E+00  0.326E+00
  11.788  0.252E+00  0.188E+00
  11.798  0.395E+00  0.304E+00
  11.808  0.711E+00  0.560E+00
  11.818  0.149E+01  0.114E+01
  11.828  0.126E+01  0.959E+00
  11.838  0.146E+01  0.105E+01
  11.848  0.975E+00  0.609E+00
  11.858  0.101E+01  0.525E+00
  11.868  0.158E+01  0.755E+00
  11.878  0.274E+01  0.123E+01
  11.888  0.159E+01  0.722E+00
  11.898  0.752E+00  0.442E+00
  11.908  0.131E+01  0.764E+00
  11.918  0.103E+01  0.646E+00
  11.928  0.117E+01  0.740E+00
  11.938  0.719E+00  0.490E+00
  11.948  0.645E+00  0.481E+00
  11.958  0.682E+00  0.460E+00
  11.968  0.198E+01  0.133E+01
  11.978  0.228E+01  0.151E+01
  11.988  0.201E+01  0.129E+01
  11.998  0.151E+01  0.104E+01
  12.008  0.607E+00  0.495E+00
  12.018  0.214E+00  0.160E+00
  12.028  0.993E+00  0.611E+00
  12.038  0.117E+01  0.706E+00
  12.048  0.828E+00  0.550E+00
  12.058  0.117E+01  0.824E+00
  12.068  0.471E+00  0.349E+00
  12.078  0.181E+00  0.130E+00
  12.088  0.839E+00  0.586E+00
  12.098  0.983E+00  0.703E+00
  12.108  0.110E+01  0.848E+00
  12.118  0.161E+01  0.117E+01
  12.128  0.199E+01  0.132E+01
  12.138  0.202E+01  0.123E+01
  12.148  0.896E+00  0.495E+00
  12.158  0.852E+00  0.507E+00
  12.168  0.232E+01  0.141E+01
  12.178  0.255E+01  0.163E+01
  12.188  0.911E+00  0.571E+00
  12.198  0.984E+00  0.571E+00
  12.208  0.277E+01  0.157E+01
  12.218  0.172E+01  0.100E+01
  12.228  0.448E+00  0.241E+00
  12.238  0.107E+01  0.609E+00
  12.248  0.164E+01  0.117E+01
  12.258  0.114E+01  0.837E+00
  12.268  0.832E+00  0.517E+00
  12.278  0.806E+00  0.349E+00
  12.288  0.529E+00  0.292E+00
  12.298  0.876E+00  0.608E+00
  12.308  0.990E+00  0.685E+00
  12.318  0.803E+00  0.575E+00
  12.328  0.136E+01  0.975E+00
  12.338  0.146E+01  0.107E+01
  12.348  0.154E+01  0.117E+01
  12.358  0.793E+00  0.493E+00
  12.368  0.945E+00  0.475E+00
  12.378  0.131E+01  0.862E+00
  12.388  0.983E+00  0.717E+00
  12.398  0.458E+00  0.359E+00
  12.408  0.129E+00  0.103E+00
  12.418  0.640E-02  0.509E-02
  12.428  0.651E-04  0.504E-04
  12.438  0.395E-02  0.288E-02
  12.448  0.993E-01  0.723E-01
  12.458  0.375E+00  0.273E+00
  12.468  0.752E+00  0.541E+00
  12.478  0.180E+01  0.113E+01
  12.488  0.201E+01  0.109E+01
  12.498  0.846E+00  0.516E+00
  12.508  0.176E+00  0.103E+00
  12.518  0.523E+00  0.192E+00
  12.528  0.583E+00  0.227E+00
  12.538  0.364E+00  0.217E+00
  12.548  0.295E+00  0.187E+00
  12.558  0.827E+00  0.437E+00
  12.568  0.162E+01  0.810E+00
  12.578  0.519E+00  0.247E+00
  12.588  0.270E+00  0.146E+00
  12.598  0.606E+00  0.287E+00
  12.608  0.971E+00  0.379E+00
  12.618  0.107E+01  0.406E+00
  12.628  0.956E+00  0.588E+00
  12.638  0.114E+01  0.797E+00
  12.648  0.759E+00  0.389E+00
  12.658  0.723E+00  0.212E+00
  12.668  0.618E+00  0.185E+00
  12.678  0.111E+01  0.445E+00
  12.688  0.103E+01  0.530E+00
  12.698  0.760E+00  0.423E+00
  12.708  0.203E+00  0.113E+00
  12.718  0.350E+00  0.189E+00
  12.728  0.656E+00  0.354E+00
  12.738  0.171E+00  0.921E-01
  12.748  0.679E-01  0.366E-01
  12.758  0.492E+00  0.288E+00
  12.768  0.119E+01  0.782E+00
  12.778  0.120E+01  0.732E+00
  12.788  0.608E+00  0.317E+00
  12.798  0.594E+00  0.369E+00
  12.808  0.155E+01  0.970E+00
  12.818  0.116E+01  0.676E+00
  12.828  0.364E+00  0.204E+00
  12.838  0.615E+00  0.365E+00
  12.848  0.148E+01  0.851E+00
  12.858  0.127E+01  0.690E+00
  12.868  0.805E+00  0.400E+00
  12.878  0.489E+00  0.306E+00
  12.888  0.980E+00  0.629E+00
  12.898  0.221E+01  0.140E+01
  12.908  0.188E+01  0.121E+01
  12.918  0.680E+00  0.425E+00
  12.928  0.258E+00  0.132E+00
  12.938  0.679E+00  0.321E+00
  12.948  0.678E+00  0.401E+00
  12.958  0.147E+01  0.105E+01
  12.968  0.114E+01  0.860E+00
  12.978  0.921E+00  0.627E+00
  12.988  0.202E+01  0.134E+01
  12.998  0.178E+01  0.118E+01
  13.008  0.681E+00  0.424E+00
  13.018  0.360E+00  0.216E+00
  13.028  0.488E+00  0.285E+00
  13.038  0.652E+00  0.388E+00
  13.048  0.554E+00  0.293E+00
  13.058  0.123E+01  0.607E+00
  13.068  0.187E+01  0.114E+01
  13.078  0.234E+01  0.150E+01
  13.088  0.145E+01  0.924E+00
  13.098  0.194E+01  0.115E+01
  13.108  0.187E+01  0.107E+01
  13.118  0.549E+00  0.317E+00
  13.128  0.408E+00  0.176E+00
  13.138  0.446E+00  0.264E+00
  13.148  0.118E+01  0.807E+00
  13.158  0.253E+01  0.179E+01
  13.168  0.272E+01  0.179E+01
  13.178  0.121E+01  0.674E+00
  13.188  0.601E+00  0.384E+00
  13.198  0.108E+01  0.657E+00
  13.208  0.108E+01  0.660E+00
  13.218  0.132E+01  0.880E+00
  13.228  0.161E+01  0.107E+01
  13.238  0.377E+00  0.249E+00
  13.248  0.206E+00  0.152E+00
  13.258  0.319E+00  0.236E+00
  13.268  0.146E+00  0.106E+00
  13.278  0.326E+00  0.231E+00
  13.288  0.262E+00  0.168E+00
  13.298  0.533E+00  0.283E+00
  13.308  0.691E+00  0.397E+00
  13.318  0.121E+01  0.625E+00
  13.328  0.137E+01  0.589E+00
  13.338  0.318E+00  0.111E+00
  13.348  0.131E-01  0.397E-02
  13.358  0.256E-01  0.746E-02
  13.368  0.246E+00  0.723E-01
  13.378  0.535E+00  0.172E+00
  13.388  0.727E+00  0.258E+00
  13.398  0.304E+00  0.120E+00
  13.408  0.303E+00  0.173E+00
  13.418  0.236E+00  0.136E+00
  13.428  0.114E+00  0.482E-01
  13.438  0.579E+00  0.221E+00
  13.448  0.688E+00  0.289E+00
  13.458  0.593E+00  0.324E+00
  13.468  0.747E+00  0.468E+00
  13.478  0.287E+00  0.183E+00
  13.488  0.163E-01  0.104E-01
  13.498  0.949E-03  0.382E-03
  13.508  0.595E-01  0.216E-01
  13.518  0.612E+00  0.220E+00
  13.528  0.952E+00  0.349E+00
  13.538  0.469E+00  0.267E+00
  13.548  0.296E+00  0.212E+00
  13.558  0.274E+00  0.154E+00
  13.568  0.410E+00  0.227E+00
  13.578  0.388E+00  0.230E+00
  13.588  0.132E+00  0.795E-01
  13.598  0.739E-02  0.444E-02
  13.608  0.435E-01  0.256E-01
  13.618  0.499E+00  0.292E+00
  13.628  0.905E+00  0.530E+00
  13.638  0.788E+00  0.485E+00
  13.648  0.438E+00  0.270E+00
  13.658  0.221E+00  0.863E-01
  13.668  0.379E+00  0.148E+00
  13.678  0.378E+00  0.235E+00
  13.688  0.226E+00  0.156E+00
  13.698  0.672E-01  0.381E-01
  13.708  0.284E+00  0.143E+00
  13.718  0.242E+00  0.122E+00
  13.728  0.284E-01  0.144E-01
  13.738  0.347E-01  0.230E-01
  13.748  0.396E+00  0.256E+00
  13.758  0.709E+00  0.421E+00
  13.768  0.530E+00  0.213E+00
  13.778  0.555E+00  0.224E+00
  13.788  0.114E+01  0.441E+00
  13.798  0.161E+01  0.694E+00
  13.808  0.926E+00  0.541E+00
  13.818  0.333E+00  0.229E+00
  13.828  0.368E+00  0.229E+00
  13.838  0.784E+00  0.471E+00
  13.848  0.136E+01  0.702E+00
  13.858  0.131E+01  0.538E+00
  13.868  0.354E+00  0.127E+00
  13.878  0.243E+00  0.626E-01
  13.888  0.558E+00  0.154E+00
  13.898  0.703E+00  0.209E+00
  13.908  0.525E+00  0.143E+00
  13.918  0.759E+00  0.348E+00
  13.928  0.882E+00  0.503E+00
  13.938  0.582E+00  0.232E+00
  13.948  0.661E+00  0.217E+00
  13.958  0.402E+00  0.206E+00
  13.968  0.344E+00  0.183E+00
  13.978  0.784E+00  0.269E+00
  13.988  0.108E+01  0.339E+00
  13.998  0.110E+01  0.415E+00
  14.008  0.177E+01  0.883E+00
  14.018  0.151E+01  0.918E+00
  14.028  0.652E+00  0.376E+00
  14.038  0.697E+00  0.308E+00
  14.048  0.476E+00  0.255E+00
  14.058  0.144E+01  0.102E+01
  14.068  0.211E+01  0.146E+01
  14.078  0.514E+00  0.347E+00
  14.088  0.368E+00  0.264E+00
  14.098  0.977E+00  0.706E+00
  14.108  0.547E+00  0.382E+00
  14.118  0.638E+00  0.344E+00
  14.128  0.968E+00  0.549E+00
  14.138  0.218E+01  0.144E+01
  14.148  0.138E+01  0.915E+00
  14.158  0.363E+00  0.195E+00
  14.168  0.125E+01  0.543E+00
  14.178  0.128E+01  0.526E+00
  14.188  0.241E+00  0.956E-01
  14.198  0.748E-02  0.293E-02
  14.208  0.794E-02  0.243E-02
  14.218  0.140E+00  0.430E-01
  14.228  0.337E+00  0.103E+00
  14.238  0.110E+00  0.336E-01
  14.248  0.483E-02  0.148E-02
  14.258  0.287E-04  0.880E-05
  14.268  0.232E-07  0.709E-08
  14.278  0.253E-11  0.774E-12
  14.288  0.555E-11  0.287E-11
  14.298  0.437E-07  0.227E-07
  14.308  0.470E-04  0.245E-04
  14.318  0.698E-02  0.371E-02
  14.328  0.148E+00  0.817E-01
  14.338  0.473E+00  0.283E+00
  14.348  0.277E+00  0.182E+00
  14.358  0.382E+00  0.220E+00
  14.368  0.650E+00  0.368E+00
  14.378  0.159E+00  0.899E-01
  14.388  0.544E-02  0.307E-02
  14.398  0.163E-01  0.807E-02
  14.408  0.195E+00  0.967E-01
  14.418  0.317E+00  0.157E+00
  14.428  0.697E-01  0.346E-01
  14.438  0.207E-02  0.103E-02
  14.448  0.835E-05  0.414E-05
  14.458  0.455E-08  0.226E-08
  14.468  0.336E-12  0.166E-12
  14.478  0.333E-16  0.181E-16
  14.488  0.235E-11  0.130E-11
  14.498  0.251E-07  0.138E-07
  14.508  0.361E-04  0.199E-04
  14.518  0.705E-02  0.388E-02
  14.528  0.186E+00  0.102E+00
  14.538  0.665E+00  0.366E+00
  14.548  0.321E+00  0.177E+00
  14.558  0.231E-01  0.130E-01
  14.568  0.938E-01  0.631E-01
  14.578  0.575E+00  0.388E+00
  14.588  0.535E+00  0.358E+00
  14.598  0.358E+00  0.230E+00
  14.608  0.215E+00  0.137E+00
  14.618  0.204E-01  0.130E-01
  14.628  0.262E-03  0.167E-03
  14.638  0.457E-06  0.291E-06
  14.648  0.108E-09  0.686E-10
  14.658  0.344E-14  0.219E-14
  14.668  0.237E-13  0.165E-13
  14.678  0.537E-09  0.372E-09
  14.688  0.167E-05  0.115E-05
  14.698  0.731E-03  0.497E-03
  14.708  0.457E-01  0.305E-01
  14.718  0.424E+00  0.275E+00
  14.728  0.643E+00  0.407E+00
  14.738  0.466E+00  0.318E+00
  14.748  0.630E+00  0.452E+00
  14.758  0.427E+00  0.309E+00
  14.768  0.660E-01  0.479E-01
  14.778  0.107E+00  0.759E-01
  14.788  0.337E+00  0.238E+00
  14.798  0.144E+00  0.102E+00
  14.808  0.839E-02  0.593E-02
  14.818  0.660E-04  0.466E-04
  14.828  0.702E-07  0.496E-07
  14.838  0.469E-10  0.273E-10
  14.848  0.201E-06  0.109E-06
  14.858  0.151E-03  0.799E-04
  14.868  0.157E-01  0.803E-02
  14.878  0.231E+00  0.112E+00
  14.888  0.503E+00  0.224E+00
  14.898  0.390E+00  0.203E+00
  14.908  0.684E+00  0.411E+00
  14.918  0.262E+00  0.159E+00
  14.928  0.138E-01  0.833E-02
  14.938  0.979E-04  0.592E-04
  14.948  0.941E-07  0.569E-07
  14.958  0.331E-07  0.216E-07
  14.968  0.375E-04  0.245E-04
  14.978  0.577E-02  0.377E-02
  14.988  0.120E+00  0.785E-01
  14.998  0.339E+00  0.221E+00
  15.008  0.172E+00  0.117E+00
  15.018  0.531E+00  0.397E+00
  15.028  0.143E+01  0.101E+01
  15.038  0.209E+01  0.142E+01
  15.048  0.151E+01  0.104E+01
  15.058  0.373E+00  0.257E+00
  15.068  0.277E-01  0.191E-01
  15.078  0.968E-02  0.618E-02
  15.088  0.152E+00  0.965E-01
  15.098  0.335E+00  0.213E+00
  15.108  0.100E+00  0.636E-01
  15.118  0.404E-02  0.257E-02
  15.128  0.221E-04  0.141E-04
  15.138  0.164E-07  0.104E-07
  15.148  0.164E-11  0.104E-11
  15.158  0.222E-16  0.141E-16
  15.168  0.000E+00  0.000E+00
  15.178  0.000E+00  0.000E+00
  15.188  0.000E+00  0.000E+00
  15.198  0.000E+00  0.000E+00
  15.208  0.000E+00  0.000E+00
  15.218  0.000E+00  0.000E+00
  15.228  0.000E+00  0.000E+00
  15.238  0.000E+00  0.000E+00
  15.248  0.000E+00  0.000E+00
  15.258  0.000E+00  0.000E+00
  15.268  0.000E+00  0.000E+00
  15.278  0.000E+00  0.000E+00
  15.288  0.000E+00  0.000E+00
  15.298  0.000E+00  0.000E+00
  15.308  0.000E+00  0.000E+00
  15.318  0.000E+00  0.000E+00
  15.328  0.000E+00  0.000E+00
  15.338  0.000E+00  0.000E+00
  15.348  0.000E+00  0.000E+00
  15.358  0.000E+00  0.000E+00
  15.368  0.000E+00  0.000E+00
  15.378  0.000E+00  0.000E+00
  15.388  0.000E+00  0.000E+00
  15.398  0.000E+00  0.000E+00
  15.408  0.000E+00  0.000E+00
  15.418  0.000E+00  0.000E+00
  15.428  0.000E+00  0.000E+00
  15.438  0.000E+00  0.000E+00
  15.448  0.345E-14  0.293E-14
  15.458  0.108E-09  0.918E-10
  15.468  0.458E-06  0.389E-06
  15.478  0.263E-03  0.223E-03
  15.488  0.204E-01  0.173E-01
  15.498  0.214E+00  0.182E+00
  15.508  0.305E+00  0.259E+00
  15.518  0.586E-01  0.498E-01
  15.528  0.153E-02  0.130E-02
  15.538  0.538E-05  0.457E-05
  15.548  0.257E-08  0.218E-08
  15.558  0.271E-12  0.227E-12
  15.568  0.156E-08  0.128E-08
  15.578  0.313E-05  0.257E-05
  15.588  0.848E-03  0.697E-03
  15.598  0.311E-01  0.256E-01
  15.608  0.155E+00  0.127E+00
  15.618  0.104E+00  0.854E-01
  15.628  0.945E-02  0.777E-02
  15.638  0.116E-03  0.956E-04
  15.648  0.226E-06  0.184E-06
  15.658  0.392E-04  0.296E-04
  15.668  0.688E-02  0.524E-02
  15.678  0.191E+00  0.148E+00
  15.688  0.932E+00  0.734E+00
  15.698  0.835E+00  0.659E+00
  15.708  0.131E+00  0.103E+00
  15.718  0.344E-02  0.263E-02
  15.728  0.143E-04  0.107E-04
  15.738  0.897E-08  0.662E-08
  15.748  0.818E-12  0.598E-12
  15.758  0.105E-16  0.764E-17
  15.768  0.000E+00  0.000E+00
  15.778  0.000E+00  0.000E+00
  15.788  0.000E+00  0.000E+00
  15.798  0.000E+00  0.000E+00
  15.808  0.000E+00  0.000E+00
  15.818  0.000E+00  0.000E+00
  15.828  0.000E+00  0.000E+00
  15.838  0.000E+00  0.000E+00
  15.848  0.973E-14  0.744E-14
  15.858  0.298E-09  0.228E-09
  15.868  0.124E-05  0.946E-06
  15.878  0.694E-03  0.532E-03
  15.888  0.527E-01  0.405E-01
  15.898  0.543E+00  0.418E+00
  15.908  0.757E+00  0.583E+00
  15.918  0.143E+00  0.110E+00
  15.928  0.365E-02  0.282E-02
  15.938  0.158E-04  0.121E-04
  15.948  0.105E-02  0.785E-03
  15.958  0.472E-01  0.353E-01
  15.968  0.288E+00  0.215E+00
  15.978  0.237E+00  0.177E+00
  15.988  0.265E-01  0.198E-01
  15.998  0.399E-03  0.299E-03
  16.008  0.816E-06  0.611E-06
  16.018  0.226E-09  0.169E-09
  16.028  0.845E-14  0.632E-14
  16.038  0.000E+00  0.000E+00
  16.048  0.000E+00  0.000E+00
  16.058  0.000E+00  0.000E+00
  16.068  0.000E+00  0.000E+00
  16.078  0.000E+00  0.000E+00
  16.088  0.000E+00  0.000E+00
  16.098  0.000E+00  0.000E+00
  16.108  0.000E+00  0.000E+00
  16.118  0.000E+00  0.000E+00
  16.128  0.000E+00  0.000E+00
  16.138  0.000E+00  0.000E+00
  16.148  0.000E+00  0.000E+00
  16.158  0.000E+00  0.000E+00
  16.168  0.000E+00  0.000E+00
  16.178  0.000E+00  0.000E+00
  16.188  0.000E+00  0.000E+00
  16.198  0.000E+00  0.000E+00
  16.208  0.000E+00  0.000E+00
  16.218  0.000E+00  0.000E+00
  16.228  0.000E+00  0.000E+00
  16.238  0.000E+00  0.000E+00
  16.248  0.000E+00  0.000E+00
  16.258  0.000E+00  0.000E+00
  16.268  0.000E+00  0.000E+00
  16.278  0.000E+00  0.000E+00
  16.288  0.000E+00  0.000E+00
  16.298  0.000E+00  0.000E+00
  16.308  0.113E-14  0.104E-14
  16.318  0.336E-10  0.310E-10
  16.328  0.136E-06  0.126E-06
  16.338  0.744E-04  0.687E-04
  16.348  0.551E-02  0.509E-02
  16.358  0.553E-01  0.510E-01
  16.368  0.750E-01  0.693E-01
  16.378  0.138E-01  0.127E-01
  16.388  0.342E-03  0.316E-03
  16.398  0.115E-05  0.106E-05
